Bore: BHMAR23-1
Lasfile: BHMAR23-1_InductionConductivity_Final.las
Easting: 620436.75
Northing: 6428003.89
Elevation: 65.14
Depth(m) Conductivity(mS/m)
2.003000 87.098000
2.027000 88.255000
2.053000 90.571000
2.078000 91.731000
2.103000 95.215000
2.128000 96.378000
2.152000 98.707000
2.178000 99.872000
2.203000 102.575000
2.228000 105.712000
2.253000 107.006000
2.277000 109.226000
2.303000 111.450000
2.328000 113.923000
2.353000 115.570000
2.378000 118.633000
2.402000 120.371000
2.428000 122.173000
2.453000 123.728000
2.478000 125.970000
2.503000 128.214000
2.527000 129.275000
2.553000 131.586000
2.578000 134.025000
2.603000 136.091000
2.628000 138.348000
2.652000 140.608000
2.678000 144.002000
2.703000 145.135000
2.728000 148.348000
2.753000 150.865000
2.777000 151.945000
2.803000 155.359000
2.828000 157.639000
2.853000 159.921000
2.878000 161.571000
2.902000 163.349000
2.928000 165.192000
2.953000 168.215000
2.978000 168.820000
3.003000 171.484000
3.027000 173.667000
3.053000 175.852000
3.078000 179.742000
3.103000 181.324000
3.128000 184.614000
3.152000 187.910000
3.178000 190.721000
3.203000 193.297000
3.228000 196.780000
3.253000 199.105000
3.277000 202.597000
3.303000 204.928000
3.328000 207.910000
3.353000 210.006000
3.378000 212.845000
3.402000 216.678000
3.428000 217.792000
3.453000 222.487000
3.478000 223.989000
3.503000 226.722000
3.527000 228.960000
3.553000 231.908000
3.578000 233.941000
3.603000 236.632000
3.628000 237.815000
3.652000 240.181000
3.678000 241.432000
3.703000 243.736000
3.728000 244.922000
3.753000 244.922000
3.777000 247.296000
3.803000 247.296000
3.828000 248.946000
3.853000 250.326000
3.878000 250.201000
3.902000 250.861000
3.928000 252.051000
3.953000 252.051000
3.978000 253.969000
4.003000 253.717000
4.027000 256.484000
4.053000 255.623000
4.077000 258.007000
4.103000 258.007000
4.128000 260.261000
4.152000 260.394000
4.178000 262.783000
4.202000 263.918000
4.228000 266.570000
4.253000 267.568000
4.277000 269.098000
4.303000 269.963000
4.327000 272.895000
4.353000 275.963000
4.378000 276.697000
4.402000 278.728000
4.428000 281.776000
4.452000 284.386000
4.478000 285.592000
4.503000 288.005000
4.527000 290.688000
4.553000 292.837000
4.577000 295.795000
4.603000 297.073000
4.628000 299.631000
4.652000 302.833000
4.678000 303.473000
4.702000 306.173000
4.728000 308.605000
4.753000 310.917000
4.777000 312.460000
4.803000 313.232000
4.827000 316.321000
4.853000 317.134000
4.878000 318.898000
4.902000 319.026000
4.928000 320.187000
4.952000 322.020000
4.978000 321.477000
5.003000 323.243000
5.027000 322.767000
5.053000 324.467000
5.077000 324.059000
5.103000 324.467000
5.128000 325.351000
5.152000 324.467000
5.178000 326.643000
5.202000 325.997000
5.228000 325.351000
5.253000 326.915000
5.277000 326.643000
5.303000 326.915000
5.327000 327.936000
5.353000 327.160000
5.378000 327.936000
5.402000 328.140000
5.428000 329.230000
5.452000 330.653000
5.478000 331.819000
5.503000 333.046000
5.527000 334.410000
5.553000 336.486000
5.577000 338.303000
5.603000 340.422000
5.628000 342.200000
5.652000 345.349000
5.678000 346.103000
5.702000 349.051000
5.728000 351.316000
5.753000 353.994000
5.777000 356.538000
5.803000 358.946000
5.827000 360.461000
5.853000 362.666000
5.878000 365.700000
5.902000 367.011000
5.928000 369.636000
5.952000 371.364000
5.978000 373.577000
6.003000 375.286000
6.027000 376.207000
6.053000 378.840000
6.077000 380.157000
6.103000 380.026000
6.128000 381.475000
6.152000 382.586000
6.178000 381.475000
6.202000 382.398000
6.228000 382.794000
6.253000 381.336000
6.277000 381.475000
6.303000 380.026000
6.327000 378.840000
6.353000 376.346000
6.378000 374.892000
6.402000 372.608000
6.428000 369.636000
6.452000 366.390000
6.478000 364.389000
6.503000 361.425000
6.527000 360.461000
6.553000 356.469000
6.577000 353.925000
6.603000 350.286000
6.628000 347.405000
6.652000 344.117000
6.678000 339.601000
6.702000 336.486000
6.728000 331.819000
6.753000 326.915000
6.777000 324.059000
6.803000 319.576000
6.827000 316.321000
6.853000 313.232000
6.878000 311.174000
6.902000 308.605000
6.928000 306.038000
6.952000 306.173000
6.978000 304.755000
7.003000 305.140000
7.028000 304.755000
7.053000 303.743000
7.077000 304.755000
7.103000 303.743000
7.128000 302.192000
7.153000 302.529000
7.178000 302.192000
7.202000 301.316000
7.228000 300.911000
7.253000 301.316000
7.278000 302.192000
7.303000 302.529000
7.327000 303.473000
7.353000 304.958000
7.378000 304.755000
7.403000 306.173000
7.428000 306.038000
7.452000 307.389000
7.478000 307.321000
7.503000 307.389000
7.528000 307.321000
7.553000 306.294000
7.577000 306.038000
7.603000 306.173000
7.628000 303.473000
7.653000 301.680000
7.678000 300.911000
7.702000 298.890000
7.728000 299.631000
7.753000 298.890000
7.778000 295.795000
7.803000 295.257000
7.827000 293.240000
7.853000 290.420000
7.878000 289.413000
7.903000 285.592000
7.928000 284.319000
7.952000 283.181000
7.978000 280.505000
8.002000 278.367000
8.027000 276.175000
8.052000 276.444000
8.077000 276.175000
8.102000 275.302000
8.127000 276.697000
8.152000 275.963000
8.177000 276.697000
8.202000 275.963000
8.227000 279.235000
8.252000 280.773000
8.277000 283.047000
8.302000 285.592000
8.327000 288.139000
8.352000 290.420000
8.377000 294.047000
8.402000 297.073000
8.427000 301.316000
8.452000 303.743000
8.477000 308.605000
8.502000 313.475000
8.527000 316.321000
8.552000 320.798000
8.577000 325.351000
8.602000 329.366000
8.627000 334.410000
8.652000 337.961000
8.680000 340.900000
8.702000 344.117000
8.727000 346.946000
8.752000 349.051000
8.777000 351.316000
8.802000 352.758000
8.827000 353.925000
8.852000 353.994000
8.877000 353.925000
8.902000 353.994000
8.927000 353.925000
8.952000 352.758000
8.977000 351.316000
9.002000 350.286000
9.027000 347.817000
9.052000 344.117000
9.077000 340.900000
9.102000 336.731000
9.127000 331.819000
9.152000 327.160000
9.177000 322.236000
9.202000 317.866000
9.227000 312.460000
9.252000 308.605000
9.277000 304.755000
9.302000 301.316000
9.327000 297.750000
9.352000 292.837000
9.377000 289.413000
9.402000 284.386000
9.427000 280.505000
9.452000 275.963000
9.477000 270.363000
9.502000 266.371000
9.527000 261.522000
9.552000 258.246000
9.577000 253.969000
9.602000 250.861000
9.627000 247.692000
9.652000 246.439000
9.677000 242.682000
9.702000 240.181000
9.727000 238.858000
9.752000 234.269000
9.777000 232.255000
9.802000 228.371000
9.827000 225.231000
9.852000 220.138000
9.877000 216.481000
9.902000 213.105000
9.927000 209.143000
9.952000 204.215000
9.977000 201.755000
10.003000 196.844000
10.028000 194.393000
10.052000 193.168000
10.077000 189.498000
10.102000 188.276000
10.128000 187.845000
10.153000 187.505000
10.177000 187.055000
10.202000 186.348000
10.227000 186.552000
10.253000 186.348000
10.278000 185.834000
10.302000 187.055000
10.327000 187.055000
10.352000 188.662000
10.378000 190.433000
10.403000 192.137000
10.427000 195.618000
10.452000 196.844000
10.477000 199.298000
10.503000 203.762000
10.528000 205.446000
10.552000 208.429000
10.577000 211.610000
10.602000 214.276000
10.628000 216.554000
10.653000 220.138000
10.677000 222.749000
10.702000 224.839000
10.727000 226.985000
10.753000 227.193000
10.778000 226.985000
10.802000 228.371000
10.827000 225.669000
10.852000 223.663000
10.878000 221.508000
10.903000 218.965000
10.927000 213.863000
10.952000 208.429000
10.977000 202.117000
11.003000 197.942000
11.028000 189.498000
11.052000 183.395000
11.077000 176.095000
11.102000 169.075000
11.128000 162.138000
11.153000 155.359000
11.177000 148.348000
11.202000 139.980000
11.227000 134.025000
11.253000 127.092000
11.278000 120.437000
11.302000 112.562000
11.327000 106.745000
11.352000 100.363000
11.378000 92.891000
11.403000 87.098000
11.427000 82.478000
11.452000 75.576000
11.477000 70.993000
11.503000 65.405000
11.528000 61.538000
11.552000 57.871000
11.577000 54.341000
11.602000 50.382000
11.628000 48.376000
11.653000 46.064000
11.677000 44.811000
11.702000 41.587000
11.727000 40.470000
11.753000 38.709000
11.778000 37.127000
11.802000 36.126000
11.827000 34.904000
11.852000 34.495000
11.878000 32.687000
11.903000 32.395000
11.927000 30.474000
11.952000 30.474000
11.977000 30.474000
12.003000 29.253000
12.028000 29.369000
12.052000 28.208000
12.077000 27.165000
12.102000 28.208000
12.128000 26.064000
12.153000 27.165000
12.177000 26.000000
12.202000 25.081000
12.227000 24.965000
12.253000 25.081000
12.278000 23.868000
12.302000 23.002000
12.327000 23.868000
12.352000 22.771000
12.378000 22.771000
12.403000 23.002000
12.427000 21.355000
12.452000 21.965000
12.477000 21.677000
12.503000 21.677000
12.528000 20.929000
12.552000 21.965000
12.577000 20.584000
12.602000 20.929000
12.628000 20.584000
12.653000 20.929000
12.677000 20.198000
12.702000 19.894000
12.727000 20.584000
12.753000 19.894000
12.778000 20.584000
12.802000 19.894000
12.827000 20.584000
12.852000 20.929000
12.878000 20.584000
12.903000 19.894000
12.927000 20.584000
12.952000 21.239000
12.977000 20.584000
13.003000 21.965000
13.028000 22.514000
13.052000 21.965000
13.077000 23.868000
13.102000 25.081000
13.128000 24.836000
13.153000 26.122000
13.177000 28.266000
13.202000 29.253000
13.227000 30.669000
13.253000 32.395000
13.278000 33.795000
13.302000 35.547000
13.327000 37.127000
13.352000 39.354000
13.378000 41.587000
13.403000 45.061000
13.427000 47.187000
13.452000 51.449000
13.477000 53.943000
13.503000 57.871000
13.528000 59.601000
13.552000 62.171000
13.577000 63.946000
13.602000 66.485000
13.628000 67.565000
13.653000 68.647000
13.677000 71.195000
13.702000 70.812000
13.727000 71.195000
13.753000 71.896000
13.778000 71.195000
13.802000 70.812000
13.827000 69.984000
13.852000 67.565000
13.878000 67.565000
13.903000 66.425000
13.927000 66.358000
13.952000 65.405000
13.977000 64.146000
14.003000 63.248000
14.028000 61.872000
14.052000 60.019000
14.077000 57.335000
14.102000 57.335000
14.128000 53.943000
14.153000 52.517000
14.177000 50.560000
14.202000 47.187000
14.227000 47.187000
14.253000 44.000000
14.278000 42.704000
14.302000 41.881000
14.327000 39.354000
14.352000 39.765000
14.378000 37.127000
14.403000 37.127000
14.427000 36.015000
14.452000 35.547000
14.477000 34.904000
14.503000 34.904000
14.528000 33.795000
14.552000 34.128000
14.577000 32.687000
14.602000 33.445000
14.628000 33.795000
14.653000 33.445000
14.677000 32.687000
14.702000 33.445000
14.727000 32.687000
14.753000 32.395000
14.778000 32.687000
14.802000 33.445000
14.827000 31.840000
14.852000 32.395000
14.878000 32.687000
14.903000 32.395000
14.927000 32.687000
14.952000 32.395000
14.977000 32.687000
15.002000 32.395000
15.028000 31.580000
15.052000 32.395000
15.077000 32.687000
15.102000 31.347000
15.127000 32.687000
15.153000 32.395000
15.177000 31.580000
15.202000 32.395000
15.227000 31.840000
15.252000 31.347000
15.278000 31.580000
15.302000 32.395000
15.327000 30.669000
15.352000 32.395000
15.377000 30.474000
15.403000 31.580000
15.427000 31.580000
15.452000 31.347000
15.477000 31.580000
15.502000 31.347000
15.528000 31.580000
15.552000 31.347000
15.577000 31.840000
15.602000 31.347000
15.627000 31.580000
15.653000 31.347000
15.677000 31.580000
15.702000 31.347000
15.727000 30.474000
15.752000 32.395000
15.778000 30.474000
15.802000 31.347000
15.827000 31.580000
15.852000 30.474000
15.877000 31.580000
15.903000 30.299000
15.927000 31.580000
15.952000 31.347000
15.977000 30.669000
16.002000 31.347000
16.028000 30.474000
16.052000 31.347000
16.078000 30.669000
16.102000 31.347000
16.127000 30.474000
16.153000 30.474000
16.177000 31.580000
16.203000 30.474000
16.227000 30.474000
16.252000 30.299000
16.278000 30.669000
16.302000 31.347000
16.328000 30.474000
16.352000 30.299000
16.377000 30.474000
16.403000 31.347000
16.427000 30.669000
16.453000 30.299000
16.477000 30.474000
16.502000 30.299000
16.528000 31.580000
16.552000 30.474000
16.578000 30.474000
16.602000 30.299000
16.627000 30.669000
16.653000 30.474000
16.677000 30.669000
16.703000 31.580000
16.727000 30.474000
16.752000 30.299000
16.778000 30.669000
16.802000 30.299000
16.828000 31.580000
16.852000 30.474000
16.877000 30.474000
16.903000 30.474000
16.927000 30.474000
16.953000 31.347000
16.977000 30.474000
17.002000 30.299000
17.028000 30.474000
17.052000 30.474000
17.078000 31.580000
17.102000 30.299000
17.127000 30.669000
17.153000 30.299000
17.177000 30.669000
17.203000 31.347000
17.227000 30.669000
17.252000 30.299000
17.278000 30.669000
17.302000 30.299000
17.328000 30.669000
17.352000 30.299000
17.377000 29.499000
17.403000 30.299000
17.427000 30.669000
17.453000 30.299000
17.477000 29.499000
17.502000 30.299000
17.528000 29.369000
17.552000 30.474000
17.578000 29.369000
17.602000 30.299000
17.627000 29.499000
17.653000 30.299000
17.677000 29.369000
17.703000 30.299000
17.727000 29.369000
17.752000 30.299000
17.778000 30.474000
17.802000 29.253000
17.828000 30.299000
17.852000 29.253000
17.877000 30.474000
17.903000 30.299000
17.927000 30.299000
17.953000 30.299000
17.977000 30.299000
18.002000 30.299000
18.028000 30.474000
18.052000 30.299000
18.078000 29.499000
18.102000 30.299000
18.127000 30.474000
18.153000 30.299000
18.177000 30.474000
18.203000 30.299000
18.227000 30.474000
18.252000 31.137000
18.278000 30.474000
18.302000 30.474000
18.328000 30.474000
18.352000 30.299000
18.377000 30.474000
18.403000 30.299000
18.427000 30.474000
18.453000 29.253000
18.477000 30.474000
18.502000 29.253000
18.530000 30.474000
18.552000 29.253000
18.578000 29.499000
18.602000 30.299000
18.627000 29.369000
18.653000 29.253000
18.677000 29.369000
18.703000 29.253000
18.730000 29.369000
18.752000 29.253000
18.778000 29.499000
18.802000 29.253000
18.828000 28.266000
18.852000 29.253000
18.877000 29.369000
18.903000 29.253000
18.927000 29.499000
18.953000 28.208000
18.977000 29.369000
19.002000 28.266000
19.028000 29.369000
19.052000 28.208000
19.078000 28.404000
19.102000 29.253000
19.127000 29.499000
19.153000 29.253000
19.177000 29.369000
19.203000 28.208000
19.227000 29.369000
19.252000 29.253000
19.278000 29.369000
19.302000 29.369000
19.328000 28.266000
19.352000 29.369000
19.377000 29.369000
19.403000 28.208000
19.427000 29.369000
19.453000 29.253000
19.477000 28.266000
19.502000 29.253000
19.528000 28.266000
19.552000 29.253000
19.578000 28.331000
19.602000 29.253000
19.627000 28.331000
19.653000 29.369000
19.677000 29.369000
19.703000 28.266000
19.727000 29.369000
19.752000 29.369000
19.778000 29.499000
19.802000 29.369000
19.828000 28.266000
19.852000 29.369000
19.877000 29.499000
19.903000 29.253000
19.927000 30.474000
19.953000 29.369000
19.977000 29.369000
20.002000 29.369000
20.028000 29.499000
20.052000 30.299000
20.078000 29.499000
20.102000 30.299000
20.127000 29.369000
20.153000 30.299000
20.177000 30.474000
20.203000 29.253000
20.227000 30.669000
20.252000 30.299000
20.278000 29.369000
20.302000 30.299000
20.328000 30.669000
20.352000 31.347000
20.377000 30.474000
20.403000 31.580000
20.427000 30.474000
20.453000 31.580000
20.477000 31.580000
20.502000 30.474000
20.528000 31.840000
20.552000 32.687000
20.578000 30.669000
20.602000 32.687000
20.627000 31.580000
20.653000 32.687000
20.677000 31.580000
20.703000 32.687000
20.727000 32.687000
20.752000 33.445000
20.778000 32.687000
20.802000 33.795000
20.828000 33.795000
20.852000 33.445000
20.877000 34.904000
20.903000 34.128000
20.927000 34.904000
20.953000 35.547000
20.977000 36.015000
21.002000 36.015000
21.028000 37.127000
21.052000 38.129000
21.078000 37.716000
21.102000 38.709000
21.127000 38.895000
21.153000 39.765000
21.177000 40.076000
21.203000 39.765000
21.230000 40.076000
21.252000 40.470000
21.278000 40.888000
21.302000 40.470000
21.328000 40.470000
21.352000 40.470000
21.377000 41.587000
21.403000 40.470000
21.427000 40.470000
21.453000 40.822000
21.477000 41.587000
21.502000 40.822000
21.528000 41.258000
21.552000 41.881000
21.578000 41.587000
21.602000 41.881000
21.627000 42.704000
21.653000 41.587000
21.677000 43.626000
21.703000 42.145000
21.727000 43.823000
21.752000 42.940000
21.778000 43.823000
21.802000 43.823000
21.828000 44.943000
21.852000 43.823000
21.877000 45.998000
21.903000 45.061000
21.927000 45.998000
21.953000 46.123000
21.977000 45.998000
22.002000 44.943000
22.028000 45.998000
22.052000 46.123000
22.078000 45.998000
22.102000 45.061000
22.127000 46.064000
22.153000 45.061000
22.177000 46.064000
22.203000 45.061000
22.227000 43.823000
22.252000 45.061000
22.278000 42.704000
22.302000 44.000000
22.328000 42.704000
22.352000 42.940000
22.377000 42.704000
22.403000 41.881000
22.427000 41.587000
22.453000 41.881000
22.477000 40.470000
22.502000 39.765000
22.528000 40.470000
22.552000 38.709000
22.578000 40.076000
22.602000 38.709000
22.627000 38.240000
22.653000 38.240000
22.677000 38.240000
22.703000 37.654000
22.727000 37.127000
22.752000 38.709000
22.778000 38.240000
22.802000 38.709000
22.828000 37.716000
22.852000 39.131000
22.877000 39.354000
22.903000 38.129000
22.927000 39.354000
22.953000 38.709000
22.977000 39.354000
23.002000 39.131000
23.028000 38.240000
23.052000 39.131000
23.078000 38.240000
23.102000 38.129000
23.127000 38.240000
23.153000 37.654000
23.177000 37.127000
23.203000 38.129000
23.227000 37.654000
23.252000 38.709000
23.278000 37.654000
23.302000 38.129000
23.328000 38.709000
23.352000 38.709000
23.377000 38.240000
23.403000 39.131000
23.427000 38.709000
23.453000 39.765000
23.477000 39.765000
23.502000 39.131000
23.528000 39.354000
23.552000 39.131000
23.578000 39.765000
23.602000 39.131000
23.627000 40.822000
23.653000 39.131000
23.677000 40.822000
23.703000 40.135000
23.727000 40.470000
23.752000 41.140000
23.778000 40.822000
23.802000 41.140000
23.828000 41.881000
23.852000 42.145000
23.877000 41.881000
23.903000 42.940000
23.927000 42.940000
23.953000 43.152000
23.977000 44.000000
24.002000 44.159000
24.028000 44.159000
24.052000 44.159000
24.078000 43.823000
24.102000 45.167000
24.127000 43.823000
24.153000 45.167000
24.177000 45.061000
24.203000 45.061000
24.227000 45.061000
24.252000 45.167000
24.278000 46.064000
24.302000 46.123000
24.328000 46.123000
24.352000 45.167000
24.377000 46.064000
24.403000 47.187000
24.427000 46.064000
24.453000 46.177000
24.477000 47.187000
24.502000 47.187000
24.528000 48.310000
24.552000 47.187000
24.578000 48.310000
24.602000 49.209000
24.627000 49.316000
24.653000 50.382000
24.677000 50.382000
24.703000 51.236000
24.727000 52.814000
24.752000 53.265000
24.778000 53.943000
24.802000 55.299000
24.828000 55.727000
24.852000 57.871000
24.877000 58.945000
24.903000 60.019000
24.927000 62.171000
24.953000 63.464000
24.977000 66.425000
25.002000 68.593000
25.028000 72.137000
25.052000 74.067000
25.078000 78.418000
25.102000 82.782000
25.127000 86.063000
25.153000 91.548000
25.177000 94.053000
25.203000 100.363000
25.227000 103.681000
25.252000 108.116000
25.278000 112.748000
25.302000 118.136000
25.328000 122.608000
25.352000 128.214000
25.377000 132.711000
25.403000 138.348000
25.427000 142.367000
25.453000 148.707000
25.477000 153.146000
25.502000 157.639000
25.528000 162.205000
25.552000 166.782000
25.578000 171.242000
25.602000 175.967000
25.627000 179.742000
25.653000 182.882000
25.677000 187.055000
25.703000 189.820000
25.727000 194.393000
25.752000 195.618000
25.778000 199.298000
25.802000 201.141000
25.828000 204.215000
25.852000 206.677000
25.877000 207.910000
25.903000 209.597000
25.927000 211.610000
25.953000 213.105000
25.977000 213.105000
26.002000 215.447000
26.028000 216.619000
26.052000 216.619000
26.078000 217.792000
26.102000 218.906000
26.127000 219.030000
26.153000 220.021000
26.177000 220.269000
26.203000 220.021000
26.227000 220.269000
26.252000 221.136000
26.278000 220.138000
26.302000 221.313000
26.328000 220.269000
26.352000 221.136000
26.377000 220.269000
26.403000 218.965000
26.427000 220.269000
26.453000 218.965000
26.477000 217.792000
26.502000 217.792000
26.528000 217.792000
26.552000 216.619000
26.578000 214.276000
26.602000 214.452000
26.627000 212.845000
26.653000 211.117000
26.677000 209.143000
26.703000 207.786000
26.727000 204.928000
26.752000 202.597000
26.778000 201.432000
26.802000 200.035000
26.828000 196.780000
26.852000 195.618000
26.877000 194.457000
26.903000 191.210000
26.927000 189.498000
26.953000 189.009000
26.977000 187.505000
27.002000 185.712000
27.028000 184.037000
27.052000 183.517000
27.078000 182.177000
27.102000 181.324000
27.127000 180.575000
27.153000 179.422000
27.177000 178.525000
27.203000 179.134000
27.227000 177.310000
27.252000 177.118000
27.278000 178.525000
27.302000 177.118000
27.328000 177.310000
27.352000 178.270000
27.377000 177.310000
27.403000 179.134000
27.427000 179.742000
27.453000 181.728000
27.477000 180.959000
27.502000 183.517000
27.528000 183.395000
27.552000 185.712000
27.578000 185.834000
27.602000 187.505000
27.627000 189.498000
27.653000 189.009000
27.677000 190.721000
27.703000 191.210000
27.727000 192.137000
27.752000 194.457000
27.778000 193.297000
27.802000 195.618000
27.830000 195.618000
27.852000 195.618000
27.877000 196.844000
27.903000 197.942000
27.927000 198.071000
27.953000 198.930000
27.977000 200.527000
28.002000 199.105000
28.028000 200.268000
28.052000 201.432000
28.078000 200.268000
28.102000 201.432000
28.127000 200.268000
28.153000 200.268000
28.177000 200.268000
28.203000 200.268000
28.227000 199.105000
28.252000 197.826000
28.278000 198.071000
28.302000 195.618000
28.328000 194.457000
28.352000 192.311000
28.377000 191.944000
28.403000 189.009000
28.427000 188.276000
28.453000 185.712000
28.477000 185.192000
28.502000 182.420000
28.528000 182.177000
28.552000 180.575000
28.578000 178.812000
28.602000 178.039000
28.627000 177.310000
28.653000 176.945000
28.677000 176.095000
28.703000 174.817000
28.727000 176.095000
28.752000 174.817000
28.778000 175.967000
28.802000 175.967000
28.828000 176.095000
28.852000 176.945000
28.877000 178.270000
28.903000 179.422000
28.927000 180.575000
28.953000 182.177000
28.977000 184.037000
29.002000 184.614000
29.028000 187.055000
29.052000 186.811000
29.078000 189.498000
29.102000 190.109000
29.127000 190.721000
29.153000 192.137000
29.177000 192.137000
29.203000 194.457000
29.227000 193.168000
29.252000 193.413000
29.278000 193.168000
29.302000 193.413000
29.328000 191.944000
29.352000 190.978000
29.377000 189.820000
29.403000 188.662000
29.427000 188.276000
29.453000 186.348000
29.477000 185.260000
29.502000 184.037000
29.528000 183.395000
29.552000 181.728000
29.578000 180.959000
29.602000 179.134000
29.627000 177.310000
29.653000 177.118000
29.677000 176.095000
29.703000 173.667000
29.727000 173.667000
29.752000 172.518000
29.778000 171.242000
29.802000 171.370000
29.828000 170.031000
29.852000 170.222000
29.877000 169.075000
29.903000 169.075000
29.927000 168.820000
29.953000 167.928000
29.977000 168.820000
30.002000 168.215000
30.028000 166.782000
30.052000 167.928000
30.078000 166.401000
30.102000 166.782000
30.127000 166.401000
30.153000 165.637000
30.177000 165.192000
30.203000 164.493000
30.227000 162.777000
30.252000 163.349000
30.278000 162.777000
30.302000 161.691000
30.328000 161.571000
30.352000 160.606000
30.377000 159.160000
30.403000 159.521000
30.427000 159.585000
30.453000 158.437000
30.477000 156.752000
30.502000 157.639000
30.528000 156.752000
30.552000 155.189000
30.578000 155.549000
30.602000 155.189000
30.627000 154.347000
30.653000 155.359000
30.677000 153.146000
30.703000 154.221000
30.727000 154.347000
30.752000 153.083000
30.778000 154.221000
30.802000 154.221000
30.828000 154.221000
30.852000 153.083000
30.877000 154.221000
30.903000 154.221000
30.927000 153.146000
30.952000 154.107000
30.977000 154.347000
31.002000 153.083000
31.028000 154.347000
31.052000 153.026000
31.077000 153.083000
31.102000 153.026000
31.127000 151.945000
31.153000 151.945000
31.177000 151.945000
31.202000 150.865000
31.227000 150.745000
31.252000 149.786000
31.278000 149.546000
31.302000 147.629000
31.327000 147.402000
31.352000 145.135000
31.377000 144.757000
31.403000 143.323000
31.427000 141.173000
31.452000 139.478000
31.477000 137.219000
31.502000 133.837000
31.528000 132.711000
31.552000 128.326000
31.577000 125.721000
31.602000 123.000000
31.627000 120.992000
31.653000 117.020000
31.677000 115.099000
31.702000 111.450000
31.727000 109.226000
31.752000 105.897000
31.778000 104.268000
31.802000 100.363000
31.827000 98.707000
31.852000 97.052000
31.877000 92.891000
31.903000 92.647000
31.927000 89.413000
31.952000 88.255000
31.977000 85.941000
32.002000 84.093000
32.027000 83.632000
32.053000 82.017000
32.078000 81.326000
32.102000 80.598000
32.127000 80.174000
32.152000 80.598000
32.178000 80.174000
32.203000 79.944000
32.227000 81.326000
32.252000 80.598000
32.277000 80.174000
32.303000 80.980000
32.328000 80.174000
32.352000 81.690000
32.377000 82.478000
32.402000 81.690000
32.428000 83.632000
32.453000 82.782000
32.477000 83.632000
32.502000 83.875000
32.527000 83.360000
32.553000 83.875000
32.578000 83.632000
32.602000 83.875000
32.627000 83.632000
32.652000 82.782000
32.678000 82.782000
32.703000 82.782000
32.727000 82.782000
32.752000 82.017000
32.777000 80.174000
32.803000 79.944000
32.828000 80.174000
32.852000 78.418000
32.877000 77.873000
32.902000 77.329000
32.928000 76.724000
32.953000 75.153000
32.977000 74.429000
33.002000 74.773000
33.027000 72.137000
33.053000 72.981000
33.078000 70.993000
33.102000 70.650000
33.127000 69.849000
33.152000 69.729000
33.178000 68.707000
33.203000 67.565000
33.227000 67.565000
33.252000 66.485000
33.277000 66.425000
33.303000 66.485000
33.328000 64.146000
33.352000 65.405000
33.377000 64.146000
33.402000 64.488000
33.428000 65.285000
33.453000 64.326000
33.477000 64.146000
33.502000 65.513000
33.527000 65.405000
33.553000 65.405000
33.578000 66.425000
33.602000 66.539000
33.627000 66.358000
33.652000 67.565000
33.678000 68.647000
33.703000 69.729000
33.727000 69.729000
33.752000 71.896000
33.777000 71.896000
33.803000 72.710000
33.828000 74.429000
33.852000 74.773000
33.877000 74.429000
33.902000 75.153000
33.928000 76.724000
33.953000 76.241000
33.977000 76.724000
34.002000 78.418000
34.027000 77.873000
34.053000 79.508000
34.078000 80.174000
34.102000 80.598000
34.127000 81.326000
34.152000 83.055000
34.178000 83.632000
34.203000 84.969000
34.227000 86.063000
34.252000 88.255000
34.277000 89.413000
34.303000 91.548000
34.328000 93.747000
34.352000 95.949000
34.377000 97.542000
34.402000 99.756000
34.428000 102.575000
34.453000 103.958000
34.477000 105.712000
34.502000 107.117000
34.527000 110.338000
34.553000 111.338000
34.578000 112.562000
34.602000 115.570000
34.627000 116.276000
34.652000 118.751000
34.678000 120.992000
34.703000 121.937000
34.727000 123.355000
34.752000 124.064000
34.777000 125.721000
34.803000 125.970000
34.828000 128.214000
34.852000 128.214000
34.877000 128.089000
34.902000 129.394000
34.928000 130.461000
34.953000 130.461000
34.977000 130.461000
35.002000 130.461000
35.027000 131.586000
35.053000 132.599000
35.078000 132.711000
35.102000 133.837000
35.127000 136.091000
35.152000 136.881000
35.178000 139.980000
35.203000 141.173000
35.227000 145.135000
35.252000 147.629000
35.277000 150.808000
35.303000 154.107000
35.328000 158.779000
35.352000 162.777000
35.377000 166.401000
35.402000 170.394000
35.428000 174.817000
35.453000 179.134000
35.477000 183.395000
35.502000 187.910000
35.527000 193.168000
35.553000 196.780000
35.578000 200.268000
35.602000 206.094000
35.627000 209.597000
35.652000 213.339000
35.678000 216.619000
35.703000 221.136000
35.727000 223.989000
35.752000 227.840000
35.777000 230.728000
35.803000 233.442000
35.828000 235.187000
35.852000 236.809000
35.877000 237.683000
35.902000 238.998000
35.928000 240.181000
35.953000 240.181000
35.977000 241.366000
36.002000 240.181000
36.027000 240.181000
36.053000 240.181000
36.078000 238.932000
36.102000 236.809000
36.127000 235.450000
36.152000 234.269000
36.178000 231.908000
36.203000 229.549000
36.227000 226.473000
36.252000 223.369000
36.277000 220.269000
36.303000 215.564000
36.328000 213.105000
36.352000 207.786000
36.377000 204.215000
36.402000 200.035000
36.428000 194.393000
36.453000 192.311000
36.477000 186.348000
36.502000 183.517000
36.527000 178.525000
36.553000 175.748000
36.578000 171.242000
36.602000 167.126000
36.627000 164.493000
36.652000 159.921000
36.678000 157.639000
36.703000 153.026000
36.727000 150.745000
36.752000 146.808000
36.777000 144.757000
36.803000 141.685000
36.828000 138.787000
36.852000 136.091000
36.877000 133.837000
36.902000 131.530000
36.928000 129.275000
36.953000 127.092000
36.977000 124.849000
37.002000 122.608000
37.027000 121.489000
37.053000 118.751000
37.078000 118.136000
37.102000 115.570000
37.127000 113.676000
37.152000 111.450000
37.178000 110.399000
37.203000 108.171000
37.227000 106.883000
37.252000 103.958000
37.277000 103.681000
37.303000 101.469000
37.328000 99.259000
37.352000 97.052000
37.377000 95.949000
37.402000 93.747000
37.428000 91.731000
37.453000 90.449000
37.477000 89.352000
37.502000 87.213000
37.527000 86.063000
37.553000 84.093000
37.578000 83.632000
37.602000 81.690000
37.627000 81.326000
37.652000 78.908000
37.678000 79.023000
37.703000 77.329000
37.727000 76.724000
37.752000 75.806000
37.777000 74.429000
37.803000 72.981000
37.828000 72.137000
37.852000 71.679000
37.877000 69.849000
37.902000 68.647000
37.928000 68.647000
37.953000 67.565000
37.977000 66.485000
38.002000 65.513000
38.027000 65.285000
38.053000 63.464000
38.078000 64.326000
38.102000 63.009000
38.127000 63.248000
38.152000 62.440000
38.178000 61.872000
38.203000 61.095000
38.227000 61.095000
38.252000 61.418000
38.277000 60.019000
38.303000 61.095000
38.328000 60.019000
38.352000 61.095000
38.377000 61.095000
38.402000 62.171000
38.428000 62.171000
38.453000 62.171000
38.477000 64.146000
38.502000 64.488000
38.527000 66.425000
38.553000 67.565000
38.578000 69.849000
38.602000 71.679000
38.627000 73.283000
38.652000 75.806000
38.678000 79.508000
38.703000 83.055000
38.727000 85.941000
38.752000 90.340000
38.777000 95.949000
38.803000 99.756000
38.828000 104.789000
38.852000 110.282000
38.877000 115.099000
38.902000 119.812000
38.928000 124.537000
38.953000 129.394000
38.977000 134.025000
39.002000 137.953000
39.027000 141.738000
39.053000 147.629000
39.078000 150.745000
39.102000 154.107000
39.127000 159.160000
39.152000 162.205000
39.178000 165.192000
39.203000 167.126000
39.227000 170.031000
39.252000 170.222000
39.277000 172.518000
39.303000 171.370000
39.328000 172.518000
39.352000 171.484000
39.377000 170.031000
39.402000 168.215000
39.428000 169.075000
39.453000 167.126000
39.477000 165.637000
39.502000 166.038000
39.527000 164.493000
39.553000 166.038000
39.578000 165.192000
39.602000 164.950000
39.627000 165.637000
39.652000 164.493000
39.678000 163.349000
39.703000 163.349000
39.727000 161.063000
39.752000 159.521000
39.777000 156.499000
39.803000 155.359000
39.828000 151.945000
39.852000 150.865000
39.877000 148.348000
39.902000 146.552000
39.928000 145.135000
39.953000 144.002000
39.977000 142.367000
40.002000 142.247000
40.027000 139.478000
40.053000 139.026000
40.078000 136.405000
40.102000 134.739000
40.127000 133.837000
40.152000 130.461000
40.178000 129.275000
40.203000 126.194000
40.227000 124.849000
40.252000 123.000000
40.277000 120.371000
40.303000 119.812000
40.328000 118.633000
40.352000 117.690000
40.377000 118.633000
40.402000 118.751000
40.428000 120.371000
40.453000 121.937000
40.477000 123.728000
40.502000 127.260000
40.527000 129.275000
40.553000 132.599000
40.578000 136.091000
40.602000 139.026000
40.627000 142.367000
40.652000 145.475000
40.678000 149.546000
40.703000 151.945000
40.727000 155.549000
40.752000 159.521000
40.777000 161.063000
40.803000 164.950000
40.828000 166.782000
40.852000 168.215000
40.877000 171.242000
40.902000 172.575000
40.928000 174.881000
40.953000 174.759000
40.977000 175.967000
41.002000 177.118000
41.027000 175.967000
41.053000 176.945000
41.078000 176.095000
41.102000 174.759000
41.127000 173.667000
41.152000 171.484000
41.178000 170.222000
41.203000 168.215000
41.227000 165.637000
41.252000 162.777000
41.277000 161.571000
41.303000 158.437000
41.328000 155.549000
41.352000 154.107000
41.377000 150.808000
41.402000 147.402000
41.428000 145.135000
41.453000 142.870000
41.477000 139.478000
41.502000 137.953000
41.527000 134.964000
41.553000 132.599000
41.578000 130.461000
41.602000 128.326000
41.627000 125.970000
41.652000 123.000000
41.678000 122.608000
41.703000 119.812000
41.727000 118.136000
41.752000 116.630000
41.777000 114.790000
41.803000 113.453000
41.828000 111.450000
41.852000 110.282000
41.877000 109.226000
41.902000 108.171000
41.928000 107.117000
41.953000 105.011000
41.977000 103.681000
42.002000 102.907000
42.027000 101.469000
42.053000 99.756000
42.078000 100.363000
42.102000 98.155000
42.127000 97.052000
42.152000 95.949000
42.178000 94.848000
42.203000 94.848000
42.227000 93.747000
42.252000 92.427000
42.277000 91.731000
42.303000 90.340000
42.328000 90.571000
42.352000 89.297000
42.377000 88.255000
42.402000 88.255000
42.428000 87.159000
42.453000 86.173000
42.477000 86.063000
42.502000 85.133000
42.527000 84.786000
42.553000 84.093000
42.578000 82.478000
42.602000 83.055000
42.627000 82.782000
42.652000 80.980000
42.678000 81.690000
42.703000 80.980000
42.727000 80.174000
42.752000 79.944000
42.777000 80.174000
42.803000 78.908000
42.828000 79.023000
42.852000 77.873000
42.877000 78.418000
42.902000 77.873000
42.928000 77.873000
42.953000 77.873000
42.977000 76.724000
43.002000 76.839000
43.027000 77.873000
43.053000 76.839000
43.078000 76.241000
43.102000 76.839000
43.127000 77.329000
43.152000 76.839000
43.178000 76.241000
43.203000 76.839000
43.227000 77.329000
43.252000 76.839000
43.277000 77.329000
43.303000 76.396000
43.328000 77.329000
43.352000 76.396000
43.377000 77.329000
43.402000 77.873000
43.428000 77.329000
43.453000 76.839000
43.477000 77.329000
43.502000 78.908000
43.527000 77.329000
43.553000 78.418000
43.578000 78.418000
43.602000 77.873000
43.627000 78.418000
43.652000 78.908000
43.678000 79.023000
43.703000 79.352000
43.727000 79.508000
43.752000 79.944000
43.777000 79.508000
43.803000 79.944000
43.828000 80.598000
43.852000 79.944000
43.877000 80.598000
43.902000 81.326000
43.928000 81.690000
43.953000 82.017000
43.977000 81.690000
44.002000 82.017000
44.027000 82.782000
44.053000 83.302000
44.078000 83.875000
44.102000 84.093000
44.127000 84.969000
44.152000 84.291000
44.178000 84.786000
44.203000 85.133000
44.227000 84.969000
44.252000 85.133000
44.277000 83.875000
44.303000 85.133000
44.328000 83.875000
44.352000 84.093000
44.377000 83.632000
44.402000 83.055000
44.428000 82.782000
44.453000 82.017000
44.477000 83.055000
44.502000 81.690000
44.527000 80.598000
44.553000 82.017000
44.578000 80.598000
44.602000 79.944000
44.627000 79.508000
44.652000 78.908000
44.678000 79.508000
44.703000 78.908000
44.727000 78.418000
44.752000 77.381000
44.777000 77.329000
44.803000 77.873000
44.828000 77.329000
44.852000 76.839000
44.877000 77.873000
44.902000 77.329000
44.928000 77.329000
44.953000 77.873000
44.977000 78.418000
45.002000 78.908000
45.027000 79.023000
45.053000 78.908000
45.078000 80.598000
45.102000 79.944000
45.127000 81.326000
45.152000 80.980000
45.178000 81.690000
45.203000 83.055000
45.227000 82.782000
45.252000 83.875000
45.277000 83.875000
45.303000 85.133000
45.328000 84.969000
45.352000 86.272000
45.377000 86.063000
45.402000 87.213000
45.428000 87.159000
45.453000 88.255000
45.477000 89.352000
45.502000 89.297000
45.527000 90.449000
45.553000 91.383000
45.578000 92.647000
45.602000 92.427000
45.627000 94.053000
45.652000 95.564000
45.678000 97.052000
45.703000 98.155000
45.727000 100.363000
45.752000 101.469000
45.777000 102.575000
45.803000 105.897000
45.828000 107.006000
45.852000 111.338000
45.877000 113.676000
45.902000 117.690000
45.928000 122.608000
45.953000 125.382000
45.977000 131.586000
46.002000 134.739000
46.027000 140.608000
46.053000 144.398000
46.078000 148.537000
46.102000 154.004000
46.127000 159.160000
46.152000 162.777000
46.178000 167.928000
46.203000 171.484000
46.227000 174.817000
46.252000 178.039000
46.277000 180.575000
46.303000 182.420000
46.328000 184.037000
46.352000 186.348000
46.377000 187.505000
46.402000 188.662000
46.428000 189.820000
46.453000 189.820000
46.477000 190.721000
46.502000 191.210000
46.527000 190.721000
46.553000 190.109000
46.578000 189.498000
46.602000 187.910000
46.627000 187.055000
46.652000 184.614000
46.678000 184.037000
46.703000 180.575000
46.727000 179.422000
46.752000 178.039000
46.777000 174.881000
46.803000 172.575000
46.828000 170.031000
46.852000 169.304000
46.877000 166.782000
46.902000 165.365000
46.928000 163.984000
46.953000 162.260000
46.977000 161.571000
47.002000 161.226000
47.027000 159.160000
47.053000 158.437000
47.078000 157.639000
47.102000 156.499000
47.127000 156.752000
47.152000 155.189000
47.178000 154.347000
47.203000 153.026000
47.227000 153.146000
47.252000 153.026000
47.277000 151.945000
47.303000 151.945000
47.328000 150.808000
47.352000 151.945000
47.377000 150.745000
47.402000 150.865000
47.428000 150.808000
47.453000 151.945000
47.477000 150.808000
47.502000 150.865000
47.527000 151.945000
47.553000 150.865000
47.578000 153.083000
47.602000 153.026000
47.627000 153.146000
47.652000 154.107000
47.678000 154.221000
47.703000 155.359000
47.727000 156.499000
47.752000 156.271000
47.777000 158.779000
47.803000 158.779000
47.828000 159.921000
47.852000 161.063000
47.877000 162.777000
47.902000 163.863000
47.928000 164.493000
47.953000 165.637000
47.977000 167.610000
48.002000 167.928000
48.027000 170.222000
48.053000 170.394000
48.078000 172.454000
48.102000 173.667000
48.127000 174.817000
48.152000 175.852000
48.178000 175.967000
48.203000 178.039000
48.227000 178.270000
48.252000 180.229000
48.277000 179.422000
48.303000 181.324000
48.328000 180.575000
48.352000 181.324000
48.377000 182.177000
48.402000 181.324000
48.428000 183.395000
48.453000 182.003000
48.477000 182.177000
48.502000 182.420000
48.527000 182.882000
48.553000 182.420000
48.578000 182.882000
48.602000 182.420000
48.627000 181.728000
48.652000 182.420000
48.678000 181.728000
48.703000 181.324000
48.727000 181.728000
48.752000 181.324000
48.777000 180.575000
48.803000 180.229000
48.828000 181.728000
48.852000 180.959000
48.877000 180.575000
48.902000 182.003000
48.928000 181.728000
48.953000 183.047000
48.977000 185.192000
49.002000 185.137000
49.027000 187.505000
49.053000 189.009000
49.078000 190.978000
49.102000 193.413000
49.127000 195.618000
49.152000 196.669000
49.178000 200.268000
49.203000 201.141000
49.227000 204.928000
49.252000 206.150000
49.277000 209.597000
49.303000 211.117000
49.328000 214.276000
49.352000 216.678000
49.377000 218.965000
49.402000 221.136000
49.428000 223.989000
49.453000 225.604000
49.477000 227.193000
49.502000 229.493000
49.527000 230.728000
49.553000 233.442000
49.578000 235.450000
49.602000 235.686000
49.627000 237.815000
49.652000 237.933000
49.678000 238.998000
49.703000 239.110000
49.727000 238.998000
49.752000 239.057000
49.777000 238.998000
49.803000 237.933000
49.828000 236.632000
49.852000 235.686000
49.877000 234.269000
49.902000 232.694000
49.928000 229.549000
49.953000 227.840000
49.977000 224.839000
50.002000 223.369000
50.027000 220.138000
50.053000 216.678000
50.078000 215.447000
50.102000 212.228000
50.127000 209.143000
50.152000 207.786000
50.178000 206.094000
50.203000 204.461000
50.227000 203.762000
50.252000 202.247000
50.277000 200.268000
50.303000 200.878000
50.328000 199.105000
50.352000 198.930000
50.377000 199.105000
50.402000 198.930000
50.428000 197.942000
50.453000 198.930000
50.477000 197.942000
50.502000 198.930000
50.527000 197.942000
50.553000 198.930000
50.578000 199.105000
50.602000 199.825000
50.627000 199.298000
50.652000 198.772000
50.678000 200.268000
50.703000 200.035000
50.727000 200.268000
50.752000 198.930000
50.777000 199.298000
50.803000 198.930000
50.828000 197.942000
50.852000 197.826000
50.877000 195.618000
50.902000 194.515000
50.928000 192.137000
50.953000 192.311000
50.977000 188.662000
51.002000 187.910000
51.027000 186.348000
51.053000 184.614000
51.078000 181.728000
51.102000 181.324000
51.127000 179.422000
51.152000 176.945000
51.178000 177.118000
51.203000 174.759000
51.227000 173.667000
51.252000 172.575000
51.277000 170.222000
51.303000 170.394000
51.328000 169.075000
51.352000 168.215000
51.377000 166.782000
51.402000 166.038000
51.428000 163.349000
51.453000 163.863000
51.477000 161.063000
51.502000 160.606000
51.527000 160.365000
51.553000 158.437000
51.578000 158.779000
51.602000 157.354000
51.627000 155.549000
51.652000 156.065000
51.678000 155.359000
51.703000 154.107000
51.727000 154.221000
51.752000 154.107000
51.777000 151.945000
51.803000 153.026000
51.828000 151.945000
51.852000 151.945000
51.877000 150.808000
51.902000 151.945000
51.928000 150.808000
51.953000 150.865000
51.977000 151.945000
52.002000 150.865000
52.027000 153.083000
52.053000 151.945000
52.078000 154.347000
52.102000 154.004000
52.127000 154.221000
52.152000 155.189000
52.178000 156.752000
52.203000 157.354000
52.227000 157.639000
52.252000 159.521000
52.277000 159.921000
52.303000 160.606000
52.328000 161.571000
52.352000 162.777000
52.377000 164.493000
52.402000 164.950000
52.428000 165.637000
52.453000 168.215000
52.477000 167.928000
52.502000 169.304000
52.527000 171.370000
52.553000 171.484000
52.578000 173.667000
52.602000 173.667000
52.627000 175.967000
52.652000 176.945000
52.678000 179.422000
52.703000 179.134000
52.727000 180.575000
52.752000 182.420000
52.777000 182.882000
52.803000 183.517000
52.828000 186.348000
52.852000 186.811000
52.877000 188.276000
52.902000 189.009000
52.928000 192.137000
52.953000 193.297000
52.977000 194.457000
53.002000 195.618000
53.027000 197.942000
53.053000 200.035000
53.078000 200.527000
53.102000 202.985000
53.127000 204.928000
53.152000 205.569000
53.178000 209.143000
53.203000 210.006000
53.227000 211.610000
53.252000 214.452000
53.277000 215.447000
53.303000 218.906000
53.328000 220.138000
53.352000 223.369000
53.377000 224.839000
53.402000 228.427000
53.428000 230.204000
53.453000 233.442000
53.477000 235.450000
53.502000 239.057000
53.527000 241.366000
53.553000 243.736000
53.578000 246.109000
53.602000 250.326000
53.627000 252.051000
53.652000 255.980000
53.678000 257.742000
53.703000 261.648000
53.727000 263.978000
53.752000 267.568000
53.777000 269.963000
53.803000 273.021000
53.828000 274.762000
53.852000 277.585000
53.877000 280.773000
53.902000 281.014000
53.928000 283.047000
53.953000 284.447000
53.977000 285.592000
54.002000 285.592000
54.027000 286.798000
54.053000 286.738000
54.078000 288.005000
54.102000 287.884000
54.127000 288.005000
54.152000 287.884000
54.178000 289.212000
54.203000 287.884000
54.227000 286.798000
54.252000 287.775000
54.277000 286.865000
54.303000 284.501000
54.328000 284.319000
54.352000 283.302000
54.377000 280.773000
54.402000 281.231000
54.428000 278.367000
54.453000 277.585000
54.477000 275.963000
54.502000 275.302000
54.527000 273.561000
54.553000 273.619000
54.578000 272.362000
54.602000 271.882000
54.627000 269.963000
54.652000 270.743000
54.678000 268.765000
54.703000 267.328000
54.727000 267.568000
54.752000 266.191000
54.777000 263.978000
54.803000 263.918000
54.828000 261.522000
54.852000 259.541000
54.877000 257.742000
54.902000 255.980000
54.928000 253.241000
54.953000 251.456000
54.977000 248.484000
55.002000 245.812000
55.027000 243.736000
55.053000 240.181000
55.078000 238.932000
55.102000 234.564000
55.127000 231.908000
55.152000 230.728000
55.178000 227.193000
55.203000 224.486000
55.227000 221.508000
55.252000 220.021000
55.277000 216.619000
55.303000 213.339000
55.328000 211.935000
55.352000 210.006000
55.377000 207.910000
55.402000 206.677000
55.428000 204.928000
55.453000 204.461000
55.477000 203.762000
55.502000 202.247000
55.527000 203.762000
55.553000 203.354000
55.578000 204.928000
55.602000 204.461000
55.627000 206.677000
55.652000 207.786000
55.678000 209.597000
55.703000 212.228000
55.727000 213.105000
55.752000 216.678000
55.777000 217.792000
55.803000 220.021000
55.828000 222.749000
55.852000 225.604000
55.877000 228.371000
55.902000 231.200000
55.928000 233.088000
55.953000 235.450000
55.977000 238.998000
56.002000 240.181000
56.027000 243.736000
56.053000 245.812000
56.078000 247.296000
56.102000 249.197000
56.127000 251.456000
56.152000 253.717000
56.178000 254.432000
56.203000 255.980000
56.227000 258.007000
56.252000 258.246000
56.277000 259.200000
56.303000 260.513000
56.328000 260.394000
56.352000 262.783000
56.377000 261.522000
56.402000 263.918000
56.428000 263.978000
56.453000 263.978000
56.477000 265.307000
56.502000 266.371000
56.527000 267.568000
56.553000 267.328000
56.578000 267.834000
56.602000 269.604000
56.627000 271.162000
56.652000 271.162000
56.678000 272.362000
56.703000 274.162000
56.727000 274.162000
56.752000 276.444000
56.777000 277.165000
56.803000 279.570000
56.828000 279.570000
56.852000 281.977000
56.877000 283.181000
56.902000 285.592000
56.928000 286.865000
56.953000 289.031000
56.977000 290.688000
57.002000 293.623000
57.027000 295.795000
57.053000 297.073000
57.078000 298.890000
57.102000 302.529000
57.127000 303.473000
57.152000 305.140000
57.178000 308.605000
57.203000 309.761000
57.227000 312.257000
57.252000 313.475000
57.277000 315.914000
57.303000 316.707000
57.328000 318.898000
57.352000 321.348000
57.377000 322.020000
57.402000 323.243000
57.428000 325.691000
57.453000 325.997000
57.477000 327.160000
57.502000 327.160000
57.527000 327.936000
57.553000 327.160000
57.578000 327.936000
57.602000 327.160000
57.627000 326.643000
57.652000 324.834000
57.678000 322.767000
57.703000 321.348000
57.727000 319.576000
57.752000 315.914000
57.777000 315.033000
57.803000 312.074000
57.828000 308.605000
57.852000 306.294000
57.877000 304.958000
57.902000 300.527000
57.928000 298.890000
57.953000 297.073000
57.977000 294.517000
58.002000 293.240000
58.027000 290.420000
58.053000 289.031000
58.078000 286.798000
58.102000 286.738000
58.127000 284.447000
58.152000 284.447000
58.178000 284.386000
58.203000 283.411000
58.227000 283.181000
58.252000 283.181000
58.277000 283.181000
58.303000 285.592000
58.328000 285.592000
58.352000 286.738000
58.377000 286.798000
58.402000 289.031000
58.428000 290.420000
58.453000 291.326000
58.477000 292.837000
58.502000 293.623000
58.527000 296.468000
58.553000 295.923000
58.578000 297.679000
58.602000 299.375000
58.627000 298.890000
58.652000 300.527000
58.678000 300.911000
58.703000 300.911000
58.727000 301.316000
58.752000 301.680000
58.777000 302.529000
58.803000 301.680000
58.828000 302.192000
58.852000 301.680000
58.877000 301.316000
58.902000 299.814000
58.928000 298.890000
58.953000 297.073000
58.977000 297.073000
59.002000 295.923000
59.027000 294.047000
59.053000 292.474000
59.078000 291.628000
59.102000 290.178000
59.127000 289.413000
59.152000 287.884000
59.178000 286.798000
59.203000 284.447000
59.227000 284.386000
59.252000 282.157000
59.277000 281.776000
59.303000 279.870000
59.328000 278.367000
59.352000 277.585000
59.377000 276.697000
59.402000 275.302000
59.428000 273.561000
59.453000 273.561000
59.477000 271.629000
59.502000 271.882000
59.527000 270.363000
59.553000 269.604000
59.578000 268.765000
59.602000 267.328000
59.627000 266.570000
59.652000 265.054000
59.678000 262.783000
59.703000 260.513000
59.727000 259.200000
59.752000 255.623000
59.777000 253.241000
59.803000 250.861000
59.828000 246.109000
59.852000 243.558000
59.877000 241.432000
59.902000 237.933000
59.928000 235.450000
59.953000 233.442000
59.977000 231.449000
60.002000 228.960000
60.027000 228.371000
60.053000 224.839000
60.078000 223.663000
60.102000 222.487000
60.127000 220.138000
60.152000 217.792000
60.178000 217.792000
60.203000 214.276000
60.227000 214.081000
60.252000 213.339000
60.277000 212.845000
60.303000 211.117000
60.328000 211.935000
60.352000 211.117000
60.377000 210.376000
60.402000 212.228000
60.428000 213.105000
60.453000 215.447000
60.477000 215.447000
60.502000 217.792000
60.527000 219.030000
60.553000 221.136000
60.578000 221.313000
60.602000 224.486000
60.627000 223.989000
60.652000 226.722000
60.678000 228.371000
60.703000 228.960000
60.727000 230.204000
60.752000 231.200000
60.777000 233.088000
60.803000 234.269000
60.828000 235.450000
60.852000 235.686000
60.877000 237.683000
60.902000 239.057000
60.928000 238.932000
60.953000 241.366000
60.977000 241.366000
61.002000 242.551000
61.027000 242.551000
61.053000 244.685000
61.078000 246.109000
61.102000 247.296000
61.127000 247.296000
61.152000 249.672000
61.178000 250.861000
61.203000 252.051000
61.227000 254.432000
61.252000 254.849000
61.277000 256.815000
61.303000 259.200000
61.328000 260.394000
61.352000 261.648000
61.377000 265.174000
61.402000 265.174000
61.428000 268.765000
61.453000 269.604000
61.477000 271.629000
61.502000 274.162000
61.527000 275.429000
61.553000 277.585000
61.578000 277.966000
61.602000 279.870000
61.627000 279.235000
61.652000 279.570000
61.678000 280.773000
61.703000 279.570000
61.727000 280.773000
61.752000 279.570000
61.777000 279.570000
61.803000 281.014000
61.828000 279.235000
61.852000 279.870000
61.877000 280.505000
61.902000 278.728000
61.928000 279.570000
61.953000 278.367000
61.977000 277.165000
62.002000 276.444000
62.027000 275.429000
62.053000 275.302000
62.078000 273.561000
62.102000 273.021000
62.127000 271.629000
62.152000 269.604000
62.178000 269.098000
62.203000 268.466000
62.227000 267.834000
62.252000 267.328000
62.277000 266.570000
62.303000 267.328000
62.328000 266.570000
62.352000 266.371000
62.377000 265.174000
62.402000 266.371000
62.428000 265.307000
62.453000 265.054000
62.477000 265.174000
62.502000 265.054000
62.527000 264.045000
62.553000 263.918000
62.578000 263.978000
62.602000 263.978000
62.627000 262.783000
62.652000 263.978000
62.678000 262.783000
62.703000 262.783000
62.727000 261.522000
62.752000 262.783000
62.777000 261.588000
62.803000 262.783000
62.828000 262.783000
62.852000 261.648000
62.877000 262.783000
62.902000 261.588000
62.928000 262.783000
62.953000 262.783000
62.978000 262.783000
63.002000 263.918000
63.028000 264.045000
63.053000 263.918000
63.078000 265.307000
63.103000 265.174000
63.127000 265.174000
63.153000 266.371000
63.178000 267.568000
63.203000 267.328000
63.228000 267.834000
63.252000 269.604000
63.278000 269.963000
63.303000 270.743000
63.328000 271.629000
63.353000 271.882000
63.377000 274.162000
63.403000 274.162000
63.428000 274.762000
63.453000 275.963000
63.478000 277.165000
63.502000 278.728000
63.528000 279.570000
63.553000 279.870000
63.578000 280.505000
63.603000 282.157000
63.627000 283.047000
63.653000 283.302000
63.678000 285.592000
63.703000 284.386000
63.728000 286.798000
63.752000 286.798000
63.778000 288.139000
63.803000 289.031000
63.828000 289.413000
63.853000 289.031000
63.877000 290.688000
63.903000 291.326000
63.928000 291.628000
63.953000 292.474000
63.978000 293.240000
64.003000 293.623000
64.028000 293.240000
64.053000 293.623000
64.078000 294.517000
64.103000 293.623000
64.128000 295.257000
64.153000 294.773000
64.178000 294.517000
64.203000 294.773000
64.228000 294.047000
64.253000 294.773000
64.278000 294.517000
64.303000 294.773000
64.328000 295.257000
64.353000 295.257000
64.378000 295.257000
64.403000 294.773000
64.428000 295.795000
64.453000 295.923000
64.478000 295.795000
64.503000 296.468000
64.528000 296.468000
64.553000 297.073000
64.578000 297.073000
64.603000 297.073000
64.628000 298.352000
64.653000 298.224000
64.678000 298.890000
64.703000 300.103000
64.728000 298.890000
64.753000 300.527000
64.778000 300.911000
64.803000 301.680000
64.828000 302.192000
64.853000 302.833000
64.878000 303.743000
64.903000 302.833000
64.928000 304.755000
64.953000 305.140000
64.978000 304.958000
65.003000 307.389000
65.028000 306.173000
65.053000 308.605000
65.078000 308.605000
65.103000 309.822000
65.128000 309.822000
65.153000 311.039000
65.178000 312.257000
65.203000 312.257000
65.228000 313.475000
65.253000 314.694000
65.278000 315.033000
65.303000 316.707000
65.328000 317.609000
65.353000 317.866000
65.378000 319.576000
65.403000 319.026000
65.428000 320.187000
65.453000 320.187000
65.478000 320.187000
65.503000 321.348000
65.528000 320.798000
65.553000 322.020000
65.578000 322.020000
65.603000 323.671000
65.628000 322.767000
65.653000 323.671000
65.678000 323.243000
65.703000 324.467000
65.728000 324.467000
65.753000 324.834000
65.778000 324.059000
65.803000 324.834000
65.828000 325.351000
65.853000 324.834000
65.878000 326.643000
65.903000 325.997000
65.928000 327.936000
65.953000 325.997000
65.978000 326.643000
66.003000 327.160000
66.028000 326.643000
66.053000 327.160000
66.078000 326.643000
66.103000 327.160000
66.128000 326.915000
66.153000 326.915000
66.178000 326.915000
66.203000 327.160000
66.228000 326.643000
66.253000 327.160000
66.278000 326.643000
66.303000 325.997000
66.328000 326.915000
66.353000 326.915000
66.378000 326.915000
66.403000 325.997000
66.428000 325.351000
66.453000 325.997000
66.478000 324.059000
66.503000 325.997000
66.528000 324.059000
66.553000 324.834000
66.578000 325.351000
66.603000 324.834000
66.628000 324.059000
66.653000 324.467000
66.678000 324.467000
66.703000 324.467000
66.728000 325.351000
66.753000 323.671000
66.778000 325.351000
66.803000 323.671000
66.828000 324.467000
66.853000 323.671000
66.878000 324.059000
66.903000 323.243000
66.928000 323.243000
66.953000 323.243000
66.978000 323.243000
67.003000 322.020000
67.028000 323.243000
67.053000 322.509000
67.078000 322.767000
67.103000 322.509000
67.128000 322.767000
67.153000 322.509000
67.178000 322.020000
67.203000 322.020000
67.228000 322.767000
67.253000 323.671000
67.278000 322.767000
67.303000 322.509000
67.328000 322.767000
67.353000 322.509000
67.378000 321.477000
67.403000 322.020000
67.428000 322.767000
67.453000 321.348000
67.478000 321.477000
67.503000 320.798000
67.528000 320.798000
67.553000 320.187000
67.578000 320.187000
67.603000 319.576000
67.628000 319.576000
67.653000 318.355000
67.678000 318.355000
67.703000 319.026000
67.728000 318.898000
67.753000 319.026000
67.778000 317.609000
67.803000 318.355000
67.828000 316.321000
67.853000 317.134000
67.878000 316.321000
67.903000 315.914000
67.928000 314.694000
67.953000 315.914000
67.978000 314.694000
68.003000 313.475000
68.028000 313.746000
68.053000 313.232000
68.078000 312.460000
68.103000 312.257000
68.128000 311.326000
68.153000 311.039000
68.178000 311.174000
68.203000 311.039000
68.228000 311.174000
68.253000 309.822000
68.278000 309.889000
68.303000 311.174000
68.328000 308.605000
68.353000 309.822000
68.378000 308.605000
68.403000 308.605000
68.428000 307.321000
68.453000 308.605000
68.478000 307.321000
68.503000 306.173000
68.528000 306.038000
68.553000 306.038000
68.578000 304.958000
68.603000 304.958000
68.628000 303.743000
68.653000 303.986000
68.678000 303.473000
68.703000 302.529000
68.728000 303.743000
68.753000 301.316000
68.778000 302.192000
68.803000 300.527000
68.828000 300.911000
68.853000 300.527000
68.878000 299.631000
68.903000 300.103000
68.928000 299.631000
68.953000 298.224000
68.978000 299.631000
69.003000 298.224000
69.028000 298.352000
69.053000 298.352000
69.078000 298.352000
69.103000 297.679000
69.128000 297.679000
69.153000 297.679000
69.178000 297.679000
69.203000 297.679000
69.228000 298.352000
69.253000 297.679000
69.278000 297.679000
69.303000 297.679000
69.328000 297.679000
69.353000 297.679000
69.378000 298.352000
69.403000 296.468000
69.428000 298.352000
69.453000 296.468000
69.478000 298.352000
69.503000 296.468000
69.528000 298.352000
69.553000 296.468000
69.578000 297.750000
69.603000 296.468000
69.628000 295.795000
69.653000 296.468000
69.678000 295.795000
69.703000 296.468000
69.728000 295.043000
69.753000 295.257000
69.778000 294.517000
69.803000 294.047000
69.828000 295.795000
69.853000 293.623000
69.878000 294.517000
69.903000 294.773000
69.928000 294.517000
69.953000 294.773000
69.978000 294.517000
70.003000 295.923000
70.028000 294.517000
70.053000 295.257000
70.078000 296.468000
70.103000 295.257000
70.128000 295.795000
70.153000 296.468000
70.178000 297.073000
70.203000 297.073000
70.228000 297.073000
70.253000 298.224000
70.278000 299.631000
70.303000 298.890000
70.328000 299.631000
70.353000 301.316000
70.378000 300.911000
70.403000 301.680000
70.428000 302.192000
70.453000 303.743000
70.478000 303.473000
70.503000 303.986000
70.528000 304.755000
70.553000 306.173000
70.578000 304.755000
70.603000 307.449000
70.628000 306.038000
70.653000 307.449000
70.678000 308.605000
70.703000 307.389000
70.728000 308.605000
70.753000 308.605000
70.778000 309.889000
70.803000 309.822000
70.828000 309.822000
70.853000 311.039000
70.878000 311.039000
70.903000 309.822000
70.928000 312.460000
70.953000 310.917000
70.978000 311.174000
71.003000 312.257000
71.028000 312.460000
71.053000 312.257000
71.078000 312.460000
71.103000 312.257000
71.128000 312.257000
71.153000 312.074000
71.178000 313.746000
71.203000 312.074000
71.228000 312.460000
71.253000 312.257000
71.278000 313.475000
71.303000 312.257000
71.328000 313.475000
71.353000 312.257000
71.378000 313.746000
71.403000 313.232000
71.428000 313.746000
71.453000 313.475000
71.478000 313.475000
71.503000 314.390000
71.528000 313.746000
71.553000 315.548000
71.578000 313.475000
71.603000 315.548000
71.628000 314.694000
71.653000 314.694000
71.678000 314.694000
71.703000 315.548000
71.728000 313.746000
71.753000 315.548000
71.778000 314.694000
71.803000 315.548000
71.828000 315.033000
71.853000 316.707000
71.878000 315.914000
71.903000 316.707000
71.928000 315.914000
71.953000 317.866000
71.978000 316.321000
72.003000 317.425000
72.028000 318.355000
72.053000 318.355000
72.078000 318.355000
72.103000 319.026000
72.128000 318.355000
72.153000 319.576000
72.178000 319.576000
72.203000 319.026000
72.228000 320.798000
72.253000 319.026000
72.278000 319.576000
72.303000 319.576000
72.328000 320.798000
72.353000 320.187000
72.378000 320.187000
72.403000 320.187000
72.428000 319.576000
72.453000 320.798000
72.478000 319.576000
72.503000 320.798000
72.528000 319.576000
72.553000 320.187000
72.578000 320.187000
72.603000 320.187000
72.628000 320.798000
72.653000 320.187000
72.678000 320.187000
72.703000 320.187000
72.728000 319.576000
72.753000 319.026000
72.778000 319.576000
72.803000 320.798000
72.828000 318.898000
72.853000 320.187000
72.878000 320.798000
72.903000 320.187000
72.928000 319.576000
72.953000 321.348000
72.978000 320.187000
73.003000 321.348000
73.028000 320.798000
73.053000 320.187000
73.078000 321.477000
73.103000 320.187000
73.128000 320.798000
73.153000 320.798000
73.178000 320.798000
73.203000 320.798000
73.228000 320.798000
73.253000 320.798000
73.278000 320.798000
73.303000 320.187000
73.328000 320.798000
73.353000 320.187000
73.378000 319.576000
73.403000 320.187000
73.428000 319.576000
73.453000 319.026000
73.478000 318.355000
73.503000 319.026000
73.528000 318.355000
73.553000 319.026000
73.578000 317.134000
73.603000 317.866000
73.628000 315.914000
73.653000 316.707000
73.678000 316.321000
73.703000 316.707000
73.728000 315.914000
73.753000 315.548000
73.778000 315.914000
73.803000 315.548000
73.828000 315.033000
73.853000 315.548000
73.878000 314.694000
73.903000 314.694000
73.928000 314.694000
73.953000 314.390000
73.978000 315.033000
74.003000 315.217000
74.028000 314.694000
74.053000 315.548000
74.078000 313.746000
74.103000 315.548000
74.128000 313.475000
74.153000 314.390000
74.178000 313.475000
74.203000 313.232000
74.228000 312.460000
74.253000 313.011000
74.278000 313.746000
74.303000 312.074000
74.328000 312.257000
74.353000 313.232000
74.378000 311.039000
74.403000 312.074000
74.428000 312.257000
74.453000 311.039000
74.478000 311.039000
74.503000 309.761000
74.528000 309.822000
74.553000 309.822000
74.578000 308.605000
74.603000 308.605000
74.628000 307.321000
74.653000 306.294000
74.678000 304.958000
74.703000 305.140000
74.728000 303.743000
74.753000 303.986000
74.778000 301.316000
74.803000 299.375000
74.828000 298.890000
74.853000 295.923000
74.878000 293.240000
74.903000 292.474000
74.928000 289.212000
74.953000 289.031000
74.978000 286.798000
75.003000 285.592000
75.028000 285.592000
75.053000 284.447000
75.078000 283.181000
75.103000 283.302000
75.128000 283.047000
75.153000 282.157000
75.178000 280.773000
75.203000 279.870000
75.228000 280.505000
75.253000 279.870000
75.278000 279.235000
75.303000 278.728000
75.328000 279.235000
75.353000 279.870000
75.378000 280.773000
75.403000 279.870000
75.428000 281.977000
75.453000 282.157000
75.478000 283.047000
75.503000 284.447000
75.528000 284.386000
75.553000 285.592000
75.578000 286.798000
75.603000 287.884000
75.628000 288.005000
75.653000 289.031000
75.678000 288.139000
75.703000 290.178000
75.728000 290.420000
75.753000 291.326000
75.778000 292.837000
75.803000 292.474000
75.828000 293.240000
75.853000 294.773000
75.878000 296.468000
75.903000 295.923000
75.928000 298.890000
75.953000 298.890000
75.978000 300.103000
76.003000 300.103000
76.028000 302.529000
76.053000 302.529000
76.078000 303.743000
76.103000 305.140000
76.128000 304.958000
76.153000 306.294000
76.178000 306.173000
76.203000 307.449000
76.228000 307.389000
76.253000 308.605000
76.278000 308.605000
76.303000 308.605000
76.328000 308.605000
76.353000 309.761000
76.378000 311.174000
76.403000 309.761000
76.428000 311.039000
76.453000 310.917000
76.478000 312.257000
76.503000 312.074000
76.528000 312.257000
76.553000 313.232000
76.578000 312.257000
76.603000 313.475000
76.628000 312.257000
76.653000 314.390000
76.678000 313.475000
76.703000 313.475000
76.728000 313.475000
76.753000 313.232000
76.778000 313.746000
76.803000 313.232000
76.828000 314.694000
76.853000 313.232000
76.878000 313.475000
76.903000 314.390000
76.928000 313.475000
76.953000 314.390000
76.978000 313.746000
77.003000 314.390000
77.028000 314.694000
77.053000 313.232000
77.078000 314.694000
77.103000 314.390000
77.128000 313.475000
77.153000 314.390000
77.178000 313.475000
77.203000 314.390000
77.228000 313.475000
77.253000 314.390000
77.278000 313.746000
77.303000 313.232000
77.328000 313.475000
77.353000 313.232000
77.378000 312.460000
77.403000 313.232000
77.428000 312.460000
77.453000 312.074000
77.478000 312.460000
77.503000 310.917000
77.528000 311.039000
77.553000 310.917000
77.578000 309.822000
77.603000 308.605000
77.628000 308.605000
77.653000 307.449000
77.678000 306.038000
77.703000 306.294000
77.728000 304.958000
77.753000 303.986000
77.778000 303.743000
77.803000 302.833000
77.828000 302.529000
77.853000 301.680000
77.878000 301.316000
77.903000 301.316000
77.928000 300.103000
77.953000 300.527000
77.978000 300.103000
78.003000 298.890000
78.028000 300.103000
78.053000 299.375000
78.078000 299.631000
78.103000 298.224000
78.128000 298.352000
78.153000 299.375000
78.178000 297.679000
78.203000 298.890000
78.228000 298.890000
78.253000 299.375000
78.278000 300.103000
78.303000 300.527000
78.328000 300.103000
78.353000 300.527000
78.378000 302.192000
78.403000 301.680000
78.428000 301.316000
78.453000 303.986000
78.478000 303.473000
78.503000 303.107000
78.528000 304.755000
78.553000 305.140000
78.578000 304.958000
78.603000 305.140000
78.628000 306.038000
78.653000 305.140000
78.678000 306.173000
78.703000 306.294000
78.728000 307.321000
78.753000 307.449000
78.778000 307.389000
78.803000 308.605000
78.828000 308.605000
78.853000 309.822000
78.878000 309.822000
78.903000 310.917000
78.928000 312.257000
78.953000 312.074000
78.978000 312.460000
79.003000 314.390000
79.028000 314.694000
79.053000 315.548000
79.078000 316.321000
79.103000 317.866000
79.128000 319.576000
79.153000 322.509000
79.178000 324.467000
79.203000 325.997000
79.228000 328.140000
79.253000 330.653000
79.278000 331.819000
79.303000 332.985000
79.328000 335.502000
79.353000 336.486000
79.378000 337.961000
79.403000 338.822000
79.428000 340.900000
79.453000 342.330000
79.478000 345.349000
79.503000 345.349000
79.528000 347.817000
79.553000 349.051000
79.578000 351.522000
79.603000 351.707000
79.628000 352.620000
79.653000 355.231000
79.678000 355.231000
79.703000 357.583000
79.728000 358.946000
79.753000 359.937000
79.778000 361.770000
79.803000 363.472000
79.828000 366.390000
79.853000 367.633000
79.878000 371.364000
79.903000 371.737000
79.928000 375.099000
79.953000 376.470000
79.978000 378.840000
80.003000 380.026000
80.028000 380.157000
80.053000 381.212000
80.078000 382.586000
80.103000 382.398000
80.128000 382.794000
80.153000 382.398000
80.178000 381.336000
80.203000 382.586000
80.228000 381.336000
80.253000 380.088000
80.278000 377.593000
80.303000 376.346000
80.328000 373.854000
80.353000 371.737000
80.378000 368.876000
80.403000 365.831000
80.428000 362.666000
80.453000 358.946000
80.478000 355.231000
80.503000 352.881000
80.528000 348.708000
80.553000 347.015000
80.578000 342.884000
80.603000 341.160000
80.628000 337.005000
80.653000 336.486000
80.678000 334.274000
80.703000 332.985000
80.728000 331.819000
80.753000 329.366000
80.778000 328.140000
80.803000 327.160000
80.828000 325.351000
80.853000 323.671000
80.878000 324.059000
80.903000 322.509000
80.928000 321.477000
80.953000 321.348000
80.978000 321.477000
81.003000 321.348000
81.028000 320.798000
81.053000 320.187000
81.078000 321.477000
81.103000 322.509000
81.128000 320.798000
81.153000 323.671000
81.178000 322.767000
81.203000 322.509000
81.228000 322.767000
81.253000 323.671000
81.278000 324.467000
81.303000 323.671000
81.328000 325.351000
81.353000 323.671000
81.378000 324.467000
81.403000 325.691000
81.428000 323.243000
81.453000 324.834000
81.478000 324.059000
81.503000 323.671000
81.528000 324.059000
81.553000 322.509000
81.578000 321.477000
81.603000 321.348000
81.628000 321.477000
81.653000 319.576000
81.678000 318.355000
81.703000 318.355000
81.728000 317.134000
81.753000 315.548000
81.778000 315.033000
81.803000 314.390000
81.828000 312.257000
81.853000 311.039000
81.878000 309.822000
81.903000 308.605000
81.928000 307.321000
81.953000 305.140000
81.978000 303.473000
82.003000 301.680000
82.028000 297.679000
82.053000 295.257000
82.078000 292.837000
82.103000 289.031000
82.128000 285.592000
82.153000 281.014000
82.178000 276.697000
82.203000 271.882000
82.228000 267.834000
82.253000 263.918000
82.278000 259.001000
82.303000 254.849000
82.328000 251.456000
82.353000 246.940000
82.378000 243.934000
82.403000 239.057000
82.428000 235.450000
82.453000 231.908000
82.478000 228.371000
82.503000 224.486000
82.528000 221.313000
82.553000 217.792000
82.578000 215.317000
82.603000 212.228000
82.628000 209.597000
82.653000 206.677000
82.678000 204.928000
82.703000 203.354000
82.728000 202.597000
82.753000 200.035000
82.778000 199.298000
82.803000 198.930000
82.828000 196.780000
82.853000 196.722000
82.878000 194.457000
82.903000 193.413000
82.928000 191.944000
82.953000 189.009000
82.978000 187.505000
83.003000 184.614000
83.028000 182.177000
83.053000 179.134000
83.078000 174.881000
83.103000 172.575000
83.128000 168.820000
83.153000 164.950000
83.178000 161.063000
83.203000 157.354000
83.228000 154.221000
83.253000 150.808000
83.278000 146.268000
83.303000 143.323000
83.328000 139.478000
83.353000 134.739000
83.378000 132.836000
83.403000 128.326000
83.428000 124.849000
83.453000 120.874000
83.478000 118.136000
83.503000 113.676000
83.528000 111.450000
83.553000 108.171000
83.578000 104.789000
83.603000 102.575000
83.628000 101.469000
83.653000 98.707000
83.678000 97.052000
83.703000 95.564000
83.728000 93.747000
83.753000 92.427000
83.778000 91.548000
83.803000 91.383000
83.828000 89.352000
83.853000 90.340000
83.878000 88.255000
83.903000 89.297000
83.928000 88.255000
83.953000 88.255000
83.978000 88.255000
84.003000 88.255000
84.028000 89.352000
84.053000 88.255000
84.078000 88.255000
84.103000 89.297000
84.128000 89.352000
84.153000 90.340000
84.178000 91.548000
84.203000 91.383000
84.228000 92.647000
84.253000 92.427000
84.278000 94.053000
84.303000 95.564000
84.328000 95.949000
84.353000 96.611000
84.378000 98.707000
84.403000 98.707000
84.428000 101.039000
84.453000 100.805000
84.478000 103.681000
84.503000 103.681000
84.528000 104.789000
84.553000 105.011000
84.578000 107.006000
84.603000 107.117000
84.628000 108.054000
84.653000 109.226000
84.678000 109.226000
84.703000 110.338000
84.728000 111.450000
84.753000 111.338000
84.778000 112.562000
84.803000 112.395000
84.828000 113.676000
84.853000 114.511000
84.878000 113.923000
84.903000 114.511000
84.928000 114.790000
84.953000 114.511000
84.978000 115.905000
85.003000 114.511000
85.028000 116.276000
85.053000 115.570000
85.078000 115.099000
85.103000 115.570000
85.128000 115.905000
85.153000 115.905000
85.178000 115.905000
85.203000 114.790000
85.228000 115.905000
85.253000 115.570000
85.278000 114.790000
85.303000 115.570000
85.328000 115.099000
85.353000 114.511000
85.378000 114.790000
85.403000 113.453000
85.428000 115.099000
85.453000 113.453000
85.478000 112.562000
85.503000 112.395000
85.528000 112.748000
85.553000 111.338000
85.578000 110.338000
85.603000 110.282000
85.628000 108.054000
85.653000 108.171000
85.678000 107.006000
85.703000 106.064000
85.728000 105.712000
85.753000 103.958000
85.778000 103.681000
85.803000 103.681000
85.828000 102.575000
85.853000 101.469000
85.878000 101.469000
85.903000 100.363000
85.928000 100.363000
85.953000 100.363000
85.978000 99.259000
86.003000 99.756000
86.028000 98.155000
86.053000 99.756000
86.078000 97.542000
86.103000 98.707000
86.128000 98.155000
86.153000 99.259000
86.178000 98.155000
86.203000 98.707000
86.228000 99.259000
86.253000 98.707000
86.278000 99.872000
86.303000 99.756000
86.328000 100.363000
86.353000 100.363000
86.378000 100.363000
86.403000 100.805000
86.428000 101.469000
86.453000 102.575000
86.478000 102.575000
86.503000 102.907000
86.528000 103.681000
86.553000 103.958000
86.578000 104.789000
86.603000 105.011000
86.628000 105.897000
86.653000 106.064000
86.678000 107.006000
86.703000 106.214000
86.728000 108.054000
86.753000 108.171000
86.778000 108.116000
86.803000 109.226000
86.828000 109.226000
86.853000 109.226000
86.878000 110.338000
86.903000 111.338000
86.928000 110.338000
86.953000 111.338000
86.978000 112.748000
87.003000 112.395000
87.028000 112.562000
87.053000 113.453000
87.078000 113.923000
87.103000 114.511000
87.128000 114.790000
87.153000 114.511000
87.178000 115.099000
87.203000 115.570000
87.228000 114.790000
87.253000 115.905000
87.278000 115.905000
87.303000 114.790000
87.328000 115.905000
87.353000 115.570000
87.378000 115.099000
87.403000 115.570000
87.428000 114.790000
87.453000 114.511000
87.478000 115.099000
87.503000 114.511000
87.528000 113.676000
87.553000 114.511000
87.578000 113.923000
87.603000 113.453000
87.628000 113.676000
87.653000 113.453000
87.678000 112.748000
87.703000 113.453000
87.728000 113.676000
87.753000 113.453000
87.778000 113.923000
87.803000 113.453000
87.828000 113.676000
87.853000 113.676000
87.878000 112.562000
87.903000 113.676000
87.928000 113.676000
87.953000 112.562000
87.978000 113.676000
88.003000 113.676000
88.028000 113.676000
88.053000 112.562000
88.078000 113.676000
88.103000 113.676000
88.128000 113.676000
88.153000 113.453000
88.178000 115.099000
88.203000 113.453000
88.228000 113.923000
88.253000 114.511000
88.278000 114.790000
88.303000 114.511000
88.328000 113.923000
88.353000 113.453000
88.378000 113.676000
88.403000 113.676000
88.428000 113.676000
88.453000 112.395000
88.478000 113.923000
88.503000 113.453000
88.528000 112.748000
88.553000 113.453000
88.578000 113.923000
88.603000 112.395000
88.628000 113.676000
88.653000 113.676000
88.678000 115.099000
88.703000 113.453000
88.728000 115.099000
88.753000 114.511000
88.778000 113.923000
88.803000 114.511000
88.828000 114.790000
88.853000 113.453000
88.878000 115.099000
88.903000 114.511000
88.928000 115.099000
88.953000 114.511000
88.978000 115.099000
89.003000 114.511000
89.028000 114.790000
89.053000 115.570000
89.078000 114.790000
89.103000 115.905000
89.128000 114.790000
89.153000 114.511000
89.178000 114.790000
89.203000 113.676000
89.228000 113.676000
89.253000 113.676000
89.278000 112.562000
89.303000 112.395000
89.328000 111.573000
89.353000 111.338000
89.378000 111.573000
89.403000 110.338000
89.428000 111.450000
89.453000 109.226000
89.478000 110.338000
89.503000 109.226000
89.528000 109.226000
89.553000 108.116000
89.578000 108.116000
89.603000 108.171000
89.628000 106.883000
89.653000 107.117000
89.678000 107.006000
89.703000 106.064000
89.728000 106.883000
89.753000 105.011000
89.778000 105.897000
89.803000 104.789000
89.828000 104.789000
89.853000 105.011000
89.878000 103.374000
89.903000 103.958000
89.928000 103.681000
89.953000 103.958000
89.978000 103.374000
90.003000 101.856000
90.028000 103.374000
90.053000 102.575000
90.078000 101.469000
90.103000 101.469000
90.128000 101.039000
90.153000 100.805000
90.178000 101.039000
90.203000 98.707000
90.228000 99.259000
90.253000 97.658000
90.278000 98.155000
90.303000 97.052000
90.328000 97.052000
90.353000 95.564000
90.378000 96.378000
90.403000 95.564000
90.428000 94.848000
90.453000 94.848000
90.478000 93.747000
90.503000 94.518000
90.528000 92.891000
90.553000 93.472000
90.578000 93.747000
90.603000 92.647000
90.628000 92.647000
90.653000 93.472000
90.678000 92.891000
90.703000 92.427000
90.728000 92.891000
90.753000 92.427000
90.778000 94.053000
90.803000 94.848000
90.828000 94.053000
90.853000 95.564000
90.878000 96.378000
90.903000 96.611000
90.928000 98.155000
90.953000 97.658000
90.978000 99.872000
91.003000 99.756000
91.028000 100.363000
91.053000 101.469000
91.078000 102.575000
91.103000 102.907000
91.128000 103.374000
91.153000 105.011000
91.178000 104.789000
91.203000 106.064000
91.228000 106.883000
91.253000 107.117000
91.278000 108.054000
91.303000 108.171000
91.328000 108.116000
91.353000 109.226000
91.378000 109.226000
91.403000 110.338000
91.428000 110.338000
91.453000 110.282000
91.478000 110.399000
91.503000 111.450000
91.528000 111.450000
91.553000 111.450000
91.578000 111.450000
91.603000 112.395000
91.628000 112.748000
91.653000 112.395000
91.678000 113.923000
91.703000 113.453000
91.728000 113.923000
91.753000 114.511000
91.778000 113.676000
91.803000 114.790000
91.828000 114.790000
91.853000 115.570000
91.878000 115.099000
91.903000 115.570000
91.928000 116.276000
91.953000 115.570000
91.978000 115.905000
92.003000 115.905000
92.028000 117.454000
92.053000 116.630000
92.078000 116.276000
92.103000 117.020000
92.128000 117.939000
92.153000 117.020000
92.178000 118.633000
92.203000 117.020000
92.228000 117.454000
92.253000 118.136000
92.278000 117.454000
92.303000 117.020000
92.328000 118.136000
92.353000 117.020000
92.378000 118.136000
92.403000 117.020000
92.428000 117.454000
92.453000 118.136000
92.478000 117.454000
92.503000 116.630000
92.528000 117.454000
92.553000 117.020000
92.578000 118.136000
92.603000 117.020000
92.628000 117.020000
92.653000 117.020000
92.678000 116.276000
92.703000 117.020000
92.728000 116.276000
92.753000 117.020000
92.778000 116.276000
92.803000 115.905000
92.828000 117.020000
92.853000 115.905000
92.878000 117.454000
92.903000 115.905000
92.928000 116.276000
92.953000 117.020000
92.978000 117.454000
93.003000 116.630000
93.028000 117.454000
93.053000 117.020000
93.078000 117.020000
93.103000 117.020000
93.128000 117.020000
93.153000 118.136000
93.178000 118.136000
93.203000 116.630000
93.228000 118.136000
93.253000 118.136000
93.278000 117.020000
93.303000 118.751000
93.328000 117.454000
93.353000 118.751000
93.378000 118.136000
93.403000 118.751000
93.428000 119.253000
93.453000 118.751000
93.478000 118.633000
93.503000 118.751000
93.528000 119.812000
93.553000 119.812000
93.578000 118.633000
93.603000 119.812000
93.628000 119.812000
93.653000 119.812000
93.678000 119.812000
93.703000 120.874000
93.728000 119.253000
93.753000 119.812000
93.778000 118.633000
93.803000 119.812000
93.828000 120.371000
93.853000 119.306000
93.878000 120.371000
93.903000 119.812000
93.928000 119.253000
93.953000 119.812000
93.978000 120.371000
94.003000 119.812000
94.028000 119.253000
94.053000 119.812000
94.078000 119.812000
94.103000 119.812000
94.128000 120.371000
94.153000 120.371000
94.178000 120.371000
94.203000 119.812000
94.228000 120.371000
94.253000 119.253000
94.278000 119.812000
94.303000 120.371000
94.328000 119.812000
94.353000 119.253000
94.378000 119.812000
94.403000 120.371000
94.428000 118.633000
94.453000 119.812000
94.478000 118.633000
94.503000 118.136000
94.528000 117.454000
94.553000 117.690000
94.578000 117.454000
94.603000 115.905000
94.628000 116.276000
94.653000 114.790000
94.678000 113.923000
94.703000 113.676000
94.728000 113.676000
94.753000 112.562000
94.778000 111.573000
94.803000 111.338000
94.828000 110.399000
94.853000 109.226000
94.878000 109.226000
94.903000 108.171000
94.928000 109.226000
94.953000 107.006000
94.978000 108.054000
95.003000 107.006000
95.028000 105.712000
95.053000 107.006000
95.078000 105.712000
95.103000 105.897000
95.128000 105.712000
95.153000 105.897000
95.178000 105.712000
95.203000 106.064000
95.228000 105.712000
95.253000 105.897000
95.278000 105.712000
95.303000 104.789000
95.328000 105.712000
95.353000 105.011000
95.378000 104.543000
95.403000 104.789000
95.428000 103.374000
95.453000 103.681000
95.478000 103.681000
95.503000 103.681000
95.528000 104.543000
95.553000 103.681000
95.578000 103.681000
95.603000 104.789000
95.628000 103.681000
95.653000 103.681000
95.678000 103.374000
95.703000 103.958000
95.728000 104.543000
95.753000 102.907000
95.778000 104.543000
95.803000 103.681000
95.828000 103.681000
95.853000 103.681000
95.878000 103.681000
95.903000 102.907000
95.928000 103.681000
95.953000 102.907000
95.978000 103.374000
96.003000 102.907000
96.028000 102.575000
96.053000 102.907000
96.078000 103.374000
96.103000 101.856000
96.128000 101.469000
96.153000 101.856000
96.178000 102.206000
96.203000 100.805000
96.228000 100.363000
96.253000 100.363000
96.278000 100.363000
96.303000 99.756000
96.328000 100.363000
96.353000 99.756000
96.378000 99.872000
96.403000 99.756000
96.428000 99.872000
96.453000 99.756000
96.478000 99.872000
96.503000 99.259000
96.528000 99.259000
96.553000 100.363000
96.578000 100.363000
96.603000 99.756000
96.628000 99.872000
96.653000 100.805000
96.678000 100.363000
96.703000 100.805000
96.728000 101.039000
96.753000 100.805000
96.778000 100.363000
96.803000 101.856000
96.828000 101.039000
96.853000 100.805000
96.878000 101.469000
96.903000 100.805000
96.928000 101.039000
96.953000 100.805000
96.978000 101.469000
97.003000 100.805000
97.028000 101.039000
97.053000 100.805000
97.078000 101.039000
97.103000 101.856000
97.128000 99.872000
97.153000 100.805000
97.178000 99.872000
97.203000 100.363000
97.228000 99.259000
97.253000 99.259000
97.278000 99.259000
97.303000 98.707000
97.328000 98.155000
97.353000 98.155000
97.378000 97.052000
97.403000 97.658000
97.428000 96.378000
97.453000 95.564000
97.478000 95.949000
97.503000 94.848000
97.528000 94.848000
97.553000 94.518000
97.578000 93.747000
97.603000 92.427000
97.628000 92.891000
97.653000 92.427000
97.678000 91.548000
97.703000 91.383000
97.728000 90.449000
97.753000 90.449000
97.778000 89.352000
97.803000 90.449000
97.828000 89.352000
97.853000 90.449000
97.878000 89.413000
97.903000 90.340000
97.928000 89.413000
97.953000 90.449000
97.978000 89.413000
98.003000 90.449000
98.028000 90.449000
98.053000 90.449000
98.078000 90.571000
98.103000 90.340000
98.128000 90.571000
98.153000 91.383000
98.178000 90.449000
98.203000 91.383000
98.228000 91.548000
98.253000 90.449000
98.278000 91.548000
98.303000 91.383000
98.328000 91.548000
98.353000 92.647000
98.378000 91.548000
98.403000 92.427000
98.428000 91.731000
98.453000 91.383000
98.478000 91.548000
98.503000 91.548000
98.528000 91.548000
98.553000 91.548000
98.578000 90.449000
98.603000 90.449000
98.628000 90.708000
98.653000 90.449000
98.678000 90.571000
98.703000 89.297000
98.728000 90.449000
98.753000 89.352000
98.778000 90.449000
98.803000 89.352000
98.828000 90.449000
98.853000 89.297000
98.878000 90.571000
98.903000 89.297000
98.928000 90.449000
98.953000 89.297000
98.978000 90.571000
99.003000 90.340000
99.028000 90.449000
99.053000 90.340000
99.078000 90.571000
99.103000 91.383000
99.128000 91.548000
99.153000 90.449000
99.178000 91.548000
99.203000 92.647000
99.228000 91.548000
99.253000 92.647000
99.278000 94.053000
99.303000 93.747000
99.328000 94.053000
99.353000 94.848000
99.378000 96.378000
99.403000 96.611000
99.428000 96.378000
99.453000 98.155000
99.478000 98.155000
99.503000 99.259000
99.528000 101.039000
99.553000 100.363000
99.578000 101.039000
99.603000 101.469000
99.628000 103.374000
99.653000 103.681000
99.678000 103.374000
99.703000 104.789000
99.728000 104.268000
99.753000 105.897000
99.778000 106.883000
99.803000 107.006000
99.828000 106.883000
99.853000 108.171000
99.878000 109.226000
99.903000 108.116000
99.928000 109.226000
99.953000 109.226000
99.978000 110.468000
100.003000 110.338000
100.028000 109.226000
100.053000 110.338000
100.078000 110.399000
100.103000 110.338000
100.128000 110.399000
100.153000 111.338000
100.178000 110.399000
100.203000 110.338000
100.228000 111.573000
100.253000 111.338000
100.278000 110.399000
100.303000 111.338000
100.328000 111.573000
100.353000 111.450000
100.378000 111.573000
100.403000 111.450000
100.428000 111.573000
100.453000 111.450000
100.478000 111.573000
100.503000 111.573000
100.528000 111.573000
100.553000 111.338000
100.578000 110.399000
100.603000 110.399000
100.628000 110.399000
100.653000 110.338000
100.678000 109.226000
100.703000 109.226000
100.728000 107.985000
100.753000 108.116000
100.778000 106.745000
100.803000 107.006000
100.828000 106.883000
100.853000 105.897000
100.878000 106.745000
100.903000 104.789000
100.928000 105.506000
100.953000 105.897000
100.978000 104.543000
101.003000 104.789000
101.028000 103.374000
101.053000 103.681000
101.078000 103.374000
101.103000 102.575000
101.128000 102.206000
101.153000 102.575000
101.178000 101.039000
101.203000 101.469000
101.228000 99.324000
101.253000 100.805000
101.278000 99.872000
101.303000 99.259000
101.328000 98.707000
101.353000 99.259000
101.378000 97.542000
101.403000 97.542000
101.428000 97.542000
101.453000 97.052000
101.478000 96.378000
101.503000 95.949000
101.528000 94.395000
101.553000 94.848000
101.578000 95.215000
101.603000 93.747000
101.628000 94.053000
101.653000 93.747000
101.678000 92.891000
101.703000 93.747000
101.728000 93.747000
101.753000 93.747000
101.778000 94.053000
101.803000 93.747000
101.828000 92.891000
101.853000 93.747000
101.878000 92.891000
101.903000 92.647000
101.928000 93.165000
101.953000 93.472000
101.978000 92.891000
102.003000 92.427000
102.028000 92.891000
102.053000 92.647000
102.078000 92.891000
102.103000 93.747000
102.128000 92.891000
102.153000 93.747000
102.178000 94.053000
102.203000 93.747000
102.228000 94.053000
102.253000 94.848000
102.278000 94.053000
102.303000 94.518000
102.328000 95.215000
102.353000 93.747000
102.378000 93.747000
102.403000 93.747000
102.428000 93.747000
102.453000 93.472000
102.478000 92.647000
102.503000 92.427000
102.528000 91.731000
102.553000 92.647000
102.578000 91.731000
102.603000 91.383000
102.628000 90.571000
102.653000 91.548000
102.678000 90.571000
102.703000 90.340000
102.728000 89.352000
102.753000 90.449000
102.778000 88.255000
102.803000 89.352000
102.828000 89.413000
102.853000 88.255000
102.878000 88.255000
102.903000 89.352000
102.928000 88.255000
102.953000 87.159000
102.978000 88.255000
103.003000 88.255000
103.028000 89.413000
103.053000 88.255000
103.078000 88.255000
103.103000 89.413000
103.128000 88.255000
103.153000 88.255000
103.178000 89.413000
103.203000 88.255000
103.228000 88.255000
103.253000 87.159000
103.278000 88.255000
103.303000 87.159000
103.328000 87.098000
103.353000 88.255000
103.378000 87.098000
103.403000 86.173000
103.428000 87.098000
103.453000 87.213000
103.478000 86.063000
103.503000 86.063000
103.528000 85.941000
103.553000 86.063000
103.578000 84.786000
103.603000 83.875000
103.628000 84.786000
103.653000 82.782000
103.678000 83.632000
103.703000 82.782000
103.728000 81.326000
103.753000 82.017000
103.778000 80.174000
103.803000 80.598000
103.828000 81.326000
103.853000 80.598000
103.878000 79.508000
103.903000 80.598000
103.928000 80.598000
103.953000 79.508000
103.978000 79.508000
104.003000 80.598000
104.028000 80.174000
104.053000 80.598000
104.078000 80.174000
104.103000 80.598000
104.128000 80.174000
104.153000 80.980000
104.178000 80.174000
104.203000 80.980000
104.228000 79.700000
104.253000 80.598000
104.278000 81.326000
104.303000 80.598000
104.328000 81.326000
104.353000 81.690000
104.378000 82.139000
104.403000 81.690000
104.428000 82.139000
104.453000 82.478000
104.478000 82.478000
104.503000 82.782000
104.528000 83.632000
104.553000 83.875000
104.578000 83.632000
104.603000 83.875000
104.628000 83.632000
104.653000 83.875000
104.678000 83.632000
104.703000 83.632000
104.728000 82.478000
104.753000 83.632000
104.778000 82.478000
104.803000 82.782000
104.828000 82.478000
104.853000 82.782000
104.878000 81.690000
104.903000 82.017000
104.928000 81.326000
104.953000 81.690000
104.978000 81.326000
105.003000 80.174000
105.028000 81.326000
105.053000 79.508000
105.078000 79.700000
105.103000 79.508000
105.128000 79.700000
105.153000 78.418000
105.178000 77.265000
105.203000 77.329000
105.228000 76.724000
105.253000 75.153000
105.278000 75.576000
105.303000 74.429000
105.328000 74.429000
105.353000 73.741000
105.378000 73.283000
105.403000 73.741000
105.428000 72.137000
105.453000 72.710000
105.478000 72.407000
105.503000 71.896000
105.528000 73.283000
105.553000 71.896000
105.578000 72.137000
105.603000 72.981000
105.628000 72.137000
105.653000 72.710000
105.678000 72.407000
105.703000 72.981000
105.728000 74.429000
105.753000 73.283000
105.778000 75.576000
105.803000 75.153000
105.828000 75.576000
105.853000 76.241000
105.878000 76.049000
105.903000 77.873000
105.928000 79.023000
105.953000 78.418000
105.978000 80.174000
106.003000 79.508000
106.028000 80.174000
106.053000 80.598000
106.078000 81.690000
106.103000 81.690000
106.128000 81.326000
106.153000 82.478000
106.178000 83.360000
106.203000 82.782000
106.228000 84.786000
106.253000 83.875000
106.278000 83.632000
106.303000 85.133000
106.328000 83.632000
106.353000 84.093000
106.378000 84.786000
106.403000 83.875000
106.428000 83.360000
106.453000 83.875000
106.478000 83.632000
106.503000 82.782000
106.528000 83.632000
106.553000 82.782000
106.578000 81.326000
106.603000 81.690000
106.628000 79.700000
106.653000 80.598000
106.678000 80.174000
106.703000 80.598000
106.728000 80.174000
106.753000 80.598000
106.778000 79.023000
106.803000 80.174000
106.828000 79.508000
106.853000 78.418000
106.878000 79.700000
106.903000 79.508000
106.928000 77.873000
106.953000 79.508000
106.978000 77.873000
107.003000 78.418000
107.028000 79.023000
107.053000 78.908000
107.078000 77.873000
107.103000 78.418000
107.128000 77.265000
107.153000 78.418000
107.178000 78.418000
107.203000 77.329000
107.228000 77.873000
107.253000 78.418000
107.278000 79.023000
107.303000 78.418000
107.328000 77.265000
107.353000 78.418000
107.378000 79.023000
107.403000 78.418000
107.428000 78.418000
107.453000 79.508000
107.478000 78.482000
107.503000 79.944000
107.528000 79.700000
107.553000 79.508000
107.578000 80.174000
107.603000 80.598000
107.628000 80.174000
107.653000 80.598000
107.678000 80.174000
107.703000 80.598000
107.728000 82.478000
107.753000 80.980000
107.778000 81.690000
107.803000 82.782000
107.828000 81.326000
107.853000 82.017000
107.878000 81.326000
107.903000 82.478000
107.928000 81.326000
107.953000 82.782000
107.978000 81.326000
108.003000 81.690000
108.028000 82.478000
108.053000 81.690000
108.078000 81.326000
108.103000 81.690000
108.128000 81.326000
108.153000 81.690000
108.178000 81.326000
108.203000 80.598000
108.228000 81.690000
108.253000 81.690000
108.278000 81.326000
108.303000 81.690000
108.328000 81.326000
108.353000 80.598000
108.378000 81.326000
108.403000 79.508000
108.428000 80.598000
108.453000 80.598000
108.478000 80.598000
108.503000 79.944000
108.528000 80.174000
108.553000 79.508000
108.578000 80.174000
108.603000 79.508000
108.628000 80.174000
108.653000 78.418000
108.678000 80.174000
108.703000 78.418000
108.728000 77.873000
108.753000 78.908000
108.778000 77.873000
108.803000 78.418000
108.828000 76.724000
108.853000 77.329000
108.878000 77.329000
108.903000 76.241000
108.928000 76.724000
108.953000 75.153000
108.978000 75.576000
109.003000 73.741000
109.028000 75.576000
109.053000 72.981000
109.078000 74.067000
109.103000 72.981000
109.128000 73.283000
109.153000 71.896000
109.178000 70.812000
109.203000 70.650000
109.228000 70.993000
109.253000 69.621000
109.278000 69.849000
109.303000 69.621000
109.328000 69.849000
109.353000 68.647000
109.378000 68.707000
109.403000 67.565000
109.428000 67.565000
109.453000 67.565000
109.478000 67.565000
109.503000 66.539000
109.528000 66.485000
109.553000 66.485000
109.578000 66.539000
109.603000 65.513000
109.628000 66.485000
109.653000 65.611000
109.678000 65.513000
109.703000 65.611000
109.728000 65.405000
109.753000 65.611000
109.778000 65.405000
109.803000 65.611000
109.828000 65.405000
109.853000 64.634000
109.878000 65.513000
109.903000 64.634000
109.928000 65.611000
109.953000 64.634000
109.978000 64.326000
